title:ganesh sad1 33, recorded:12.05.19 13.40.11, timestamp started:2019-05-12T13:40:11.229362+05:30, sampling:128, subject:, labels:COUNTER INTERPOLATED AF3 T7 Pz T8 AF4 RAW_CQ GYROX GYROY MARKER MARKER_HARDWARE SYNC TIME_STAMP_s TIME_STAMP_ms TimeStamp CQ_AF3 CQ_T7 CQ_Pz CQ_T8 CQ_AF4, chan:20, samples:15438, units:emotiv
84.000000, 0.000000, 4151.281738, 4233.846191, 4053.845947, 4113.333008, 4599.487305, 450.000000, 8148.000000, 8377.000000, 1.000000, 1.000000, 0.000000, 0.000000, 0.000000, 1557648611.229362, 4.000000, 4.000000, 4.000000, 4.000000, 4.000000
85.000000, 0.000000, 4151.794922, 4232.307617, 4041.025635, 4114.358887, 4621.025391, 450.000000, 8148.000000, 8366.000000, 0.000000, 0.000000, 0.000000, 0.000000, 7.900024, 1557648611.237262, 4.000000, 4.000000, 4.000000, 4.000000, 4.000000
86.000000, 0.000000, 4152.820313, 4230.769043, 4041.025635, 4111.794922, 4627.179199, 450.000000, 8151.000000, 8373.000000, 0.000000, 0.000000, 0.000000, 0.000000, 15.900024, 1557648611.245262, 4.000000, 4.000000, 4.000000, 4.000000, 4.000000
87.000000, 0.000000, 4160.512695, 4226.153809, 4049.230713, 4115.897461, 4627.179199, 16175.000000, 8154.000000, 8374.000000, 0.000000, 0.000000, 0.000000, 0.000000, 23.799988, 1557648611.253162, 4.000000, 4.000000, 4.000000, 4.000000, 4.000000
88.000000, 0.000000, 4171.794922, 4234.871582, 4052.820313, 4121.538574, 4633.846191, 450.000000, 8152.000000, 8375.000000, 0.000000, 0.000000, 0.000000, 0.000000, 31.799988, 1557648611.261162, 4.000000, 4.000000, 4.000000, 4.000000, 4.000000
89.000000, 0.000000, 4177.948730, 4242.051270, 4042.563965, 4116.410156, 4636.410156, 450.000000, 8149.000000, 8376.000000, 0.000000, 0.000000, 0.000000, 0.000000, 39.500000, 1557648611.268862, 4.000000, 4.000000, 4.000000, 4.000000, 4.000000
90.000000, 0.000000, 4180.512695, 4238.974121, 4033.845947, 4113.333008, 4639.487305, 450.000000, 8157.000000, 8381.000000, 0.000000, 0.000000, 0.000000, 0.000000, 47.200012, 1557648611.276562, 4.000000, 4.000000, 4.000000, 4.000000, 4.000000
91.000000, 0.000000, 4172.820313, 4229.743652, 4032.307617, 4116.922852, 4647.692383, 16175.000000, 8154.000000, 8376.000000, 0.000000, 0.000000, 0.000000, 0.000000, 55.099976, 1557648611.284462, 4.000000, 4.000000, 4.000000, 4.000000, 4.000000
92.000000, 0.000000, 4160.512695, 4210.769043, 4028.717773, 4109.230469, 4646.153809, 450.000000, 8155.000000, 8373.000000, 0.000000, 0.000000, 0.000000, 0.000000, 63.000000, 1557648611.292362, 4.000000, 4.000000, 4.000000, 4.000000, 4.000000
93.000000, 0.000000, 4156.922852, 4201.538574, 4021.538330, 4095.384521, 4644.615234, 450.000000, 8151.000000, 8379.000000, 0.000000, 0.000000, 0.000000, 0.000000, 71.000000, 1557648611.300362, 4.000000, 4.000000, 4.000000, 4.000000, 4.000000
94.000000, 0.000000, 4163.589844, 4215.384277, 4021.538330, 4098.974121, 4666.666504, 450.000000, 8150.000000, 8382.000000, 0.000000, 0.000000, 0.000000, 0.000000, 78.900024, 1557648611.308262, 4.000000, 4.000000, 4.000000, 4.000000, 4.000000
95.000000, 0.000000, 4179.487305, 4228.205078, 4034.358887, 4104.615234, 4692.307617, 16175.000000, 8147.000000, 8368.000000, 0.000000, 0.000000, 0.000000, 0.000000, 86.900024, 1557648611.316262, 4.000000, 4.000000, 4.000000, 4.000000, 4.000000
96.000000, 0.000000, 4208.205078, 4236.410156, 4048.205078, 4102.051270, 4701.538574, 450.000000, 8151.000000, 8370.000000, 0.000000, 0.000000, 0.000000, 0.000000, 94.799988, 1557648611.324162, 4.000000, 4.000000, 4.000000, 4.000000, 4.000000
97.000000, 0.000000, 4228.205078, 4249.743652, 4050.769043, 4109.230469, 4709.743652, 450.000000, 8144.000000, 8378.000000, 0.000000, 0.000000, 0.000000, 0.000000, 102.500000, 1557648611.331862, 4.000000, 4.000000, 4.000000, 4.000000, 4.000000
98.000000, 0.000000, 4200.512695, 4244.615234, 4055.384521, 4120.512695, 4722.563965, 450.000000, 8150.000000, 8379.000000, 0.000000, 0.000000, 0.000000, 0.000000, 110.299988, 1557648611.339662, 4.000000, 4.000000, 4.000000, 4.000000, 4.000000
99.000000, 0.000000, 4214.358887, 4232.820313, 4072.307617, 4123.589844, 4728.717773, 16175.000000, 8153.000000, 8368.000000, 0.000000, 0.000000, 0.000000, 0.000000, 118.000000, 1557648611.347362, 4.000000, 4.000000, 4.000000, 4.000000, 4.000000
100.000000, 0.000000, 4254.358887, 4254.871582, 4085.128174, 4123.589844, 4742.563965, 450.000000, 8149.000000, 8373.000000, 0.000000, 0.000000, 0.000000, 0.000000, 126.000000, 1557648611.355362, 4.000000, 4.000000, 4.000000, 4.000000, 4.000000
101.000000, 0.000000, 4065.128174, 4270.769043, 4089.230713, 4125.127930, 4741.025391, 450.000000, 8152.000000, 8370.000000, 0.000000, 0.000000, 0.000000, 0.000000, 133.900024, 1557648611.363262, 4.000000, 4.000000, 4.000000, 4.000000, 4.000000
102.000000, 0.000000, 3753.333252, 4244.615234, 4089.743408, 4126.153809, 4712.307617, 450.000000, 8150.000000, 8364.000000, 0.000000, 0.000000, 0.000000, 0.000000, 141.900024, 1557648611.371262, 4.000000, 4.000000, 4.000000, 4.000000, 4.000000
103.000000, 0.000000, 3687.179443, 4226.153809, 4091.794678, 4126.153809, 4715.897461, 16175.000000, 8148.000000, 8364.000000, 0.000000, 0.000000, 0.000000, 0.000000, 149.799988, 1557648611.379162, 4.000000, 4.000000, 4.000000, 4.000000, 4.000000
104.000000, 0.000000, 3778.974365, 4233.846191, 4094.358887, 4126.153809, 4750.256348, 450.000000, 8149.000000, 8358.000000, 0.000000, 0.000000, 0.000000, 0.000000, 157.700012, 1557648611.387062, 4.000000, 4.000000, 4.000000, 4.000000, 4.000000
105.000000, 0.000000, 3780.512695, 4237.948730, 4081.025635, 4129.743652, 4755.897461, 450.000000, 8151.000000, 8361.000000, 0.000000, 0.000000, 0.000000, 0.000000, 165.700012, 1557648611.395062, 4.000000, 4.000000, 4.000000, 4.000000, 4.000000
106.000000, 0.000000, 3770.769043, 4236.922852, 4056.410156, 4128.205078, 4743.076660, 450.000000, 8147.000000, 8368.000000, 0.000000, 0.000000, 0.000000, 0.000000, 173.400024, 1557648611.402762, 4.000000, 4.000000, 4.000000, 4.000000, 4.000000
107.000000, 0.000000, 3803.589600, 4245.641113, 4055.897217, 4123.076660, 4752.820313, 16175.000000, 8143.000000, 8363.000000, 0.000000, 0.000000, 0.000000, 0.000000, 181.200012, 1557648611.410562, 4.000000, 4.000000, 4.000000, 4.000000, 4.000000
108.000000, 0.000000, 3809.230713, 4256.410156, 4071.794678, 4127.692383, 4770.769043, 450.000000, 8147.000000, 8353.000000, 0.000000, 0.000000, 0.000000, 0.000000, 189.000000, 1557648611.418362, 4.000000, 4.000000, 4.000000, 4.000000, 4.000000
109.000000, 0.000000, 3808.717773, 4250.769043, 4062.563965, 4133.846191, 4773.333008, 450.000000, 8145.000000, 8350.000000, 0.000000, 0.000000, 0.000000, 0.000000, 197.000000, 1557648611.426362, 4.000000, 4.000000, 4.000000, 4.000000, 4.000000
110.000000, 0.000000, 3805.640869, 4228.717773, 4044.615234, 4125.641113, 4759.487305, 450.000000, 8145.000000, 8356.000000, 0.000000, 0.000000, 0.000000, 0.000000, 204.900024, 1557648611.434262, 4.000000, 4.000000, 4.000000, 4.000000, 4.000000
111.000000, 0.000000, 3796.923096, 4226.666504, 4050.256348, 4114.358887, 4749.230469, 16175.000000, 8145.000000, 8358.000000, 0.000000, 0.000000, 0.000000, 0.000000, 212.799988, 1557648611.442162, 4.000000, 4.000000, 4.000000, 4.000000, 4.000000
112.000000, 0.000000, 3800.512695, 4241.538574, 4057.435791, 4117.436035, 4747.692383, 450.000000, 8141.000000, 8345.000000, 0.000000, 0.000000, 0.000000, 0.000000, 220.799988, 1557648611.450162, 4.000000, 4.000000, 4.000000, 4.000000, 4.000000
113.000000, 0.000000, 3800.000000, 4233.333008, 4052.307617, 4115.384277, 4733.846191, 450.000000, 8144.000000, 8346.000000, 0.000000, 0.000000, 0.000000, 0.000000, 228.700012, 1557648611.458062, 4.000000, 4.000000, 4.000000, 4.000000, 4.000000
114.000000, 0.000000, 3798.461426, 4207.179199, 4046.153809, 4102.563965, 4721.538574, 450.000000, 8139.000000, 8358.000000, 0.000000, 0.000000, 0.000000, 0.000000, 236.700012, 1557648611.466062, 4.000000, 4.000000, 4.000000, 4.000000, 4.000000
115.000000, 0.000000, 3798.974365, 4197.436035, 4050.256348, 4101.025391, 4724.615234, 16175.000000, 8136.000000, 8353.000000, 0.000000, 0.000000, 0.000000, 0.000000, 244.400024, 1557648611.473762, 4.000000, 4.000000, 4.000000, 4.000000, 4.000000
116.000000, 0.000000, 3798.461426, 4209.743652, 4061.025635, 4107.179199, 4727.692383, 450.000000, 8143.000000, 8357.000000, 0.000000, 0.000000, 0.000000, 0.000000, 252.200012, 1557648611.481562, 4.000000, 4.000000, 4.000000, 4.000000, 4.000000
117.000000, 0.000000, 3803.589600, 4222.051270, 4071.281982, 4111.794922, 4723.076660, 450.000000, 8145.000000, 8362.000000, 0.000000, 0.000000, 0.000000, 0.000000, 260.000000, 1557648611.489362, 4.000000, 4.000000, 4.000000, 4.000000, 4.000000
118.000000, 0.000000, 3819.487061, 4219.487305, 4080.000000, 4116.410156, 4722.051270, 450.000000, 8137.000000, 8361.000000, 0.000000, 0.000000, 0.000000, 0.000000, 267.900024, 1557648611.497262, 4.000000, 4.000000, 4.000000, 4.000000, 4.000000
119.000000, 0.000000, 3834.871582, 4211.281738, 4086.153809, 4120.000000, 4721.538574, 16175.000000, 8139.000000, 8368.000000, 0.000000, 0.000000, 0.000000, 0.000000, 275.900024, 1557648611.505262, 4.000000, 4.000000, 4.000000, 4.000000, 4.000000
120.000000, 0.000000, 3843.589600, 4212.820313, 4089.230713, 4123.589844, 4717.435547, 450.000000, 8140.000000, 8362.000000, 0.000000, 0.000000, 0.000000, 0.000000, 283.799988, 1557648611.513162, 4.000000, 4.000000, 4.000000, 4.000000, 4.000000
121.000000, 0.000000, 3848.717773, 4222.563965, 4089.230713, 4121.025391, 4715.897461, 450.000000, 8141.000000, 8358.000000, 0.000000, 0.000000, 0.000000, 0.000000, 291.799988, 1557648611.521162, 4.000000, 4.000000, 4.000000, 4.000000, 4.000000
122.000000, 0.000000, 3848.205078, 4223.076660, 4088.717773, 4112.820313, 4712.820313, 450.000000, 8138.000000, 8351.000000, 0.000000, 0.000000, 0.000000, 0.000000, 299.700012, 1557648611.529062, 4.000000, 4.000000, 4.000000, 4.000000, 4.000000
123.000000, 0.000000, 3845.128174, 4218.461426, 4090.769043, 4116.410156, 4709.230469, 16175.000000, 8134.000000, 8359.000000, 0.000000, 0.000000, 0.000000, 0.000000, 307.500000, 1557648611.536862, 4.000000, 4.000000, 4.000000, 4.000000, 4.000000
124.000000, 0.000000, 3852.307617, 4223.076660, 4084.102539, 4126.153809, 4712.307617, 450.000000, 8136.000000, 8351.000000, 0.000000, 0.000000, 0.000000, 0.000000, 315.200012, 1557648611.544562, 4.000000, 4.000000, 4.000000, 4.000000, 4.000000
125.000000, 0.000000, 3870.769043, 4231.281738, 4076.923096, 4125.127930, 4724.615234, 450.000000, 8138.000000, 8345.000000, 0.000000, 0.000000, 0.000000, 0.000000, 323.099976, 1557648611.552462, 4.000000, 4.000000, 4.000000, 4.000000, 4.000000
126.000000, 0.000000, 3890.769043, 4225.127930, 4083.589600, 4117.436035, 4735.897461, 450.000000, 8135.000000, 8344.000000, 0.000000, 0.000000, 0.000000, 0.000000, 331.099976, 1557648611.560462, 4.000000, 4.000000, 4.000000, 4.000000, 4.000000
127.000000, 0.000000, 3903.076904, 4217.948730, 4085.128174, 4122.051270, 4737.435547, 16175.000000, 8138.000000, 8354.000000, 0.000000, 0.000000, 0.000000, 0.000000, 339.000000, 1557648611.568362, 4.000000, 4.000000, 4.000000, 4.000000, 4.000000
128.000000, 0.000000, 3901.538330, 4229.230469, 4066.666504, 4124.615234, 4727.692383, 500.000000, 8142.000000, 8356.000000, 0.000000, 0.000000, 0.000000, 0.000000, 347.000000, 1557648611.576362, 4.000000, 4.000000, 4.000000, 4.000000, 4.000000
0.000000, 0.000000, 3892.820313, 4234.871582, 4057.435791, 4110.256348, 4715.384277, 500.000000, 8134.000000, 8349.000000, 0.000000, 0.000000, 0.000000, 0.000000, 354.900024, 1557648611.584262, 4.000000, 4.000000, 4.000000, 4.000000, 4.000000
1.000000, 0.000000, 3889.230713, 4227.179199, 4066.153809, 4108.717773, 4714.871582, 500.000000, 8135.000000, 8351.000000, 0.000000, 0.000000, 0.000000, 0.000000, 362.900024, 1557648611.592262, 4.000000, 4.000000, 4.000000, 4.000000, 4.000000
2.000000, 0.000000, 3899.487061, 4235.384277, 4068.717773, 4126.666504, 4723.076660, 16210.000000, 8141.000000, 8345.000000, 0.000000, 0.000000, 0.000000, 0.000000, 370.799988, 1557648611.600162, 4.000000, 4.000000, 4.000000, 4.000000, 4.000000
3.000000, 0.000000, 3914.358887, 4252.307617, 4082.563965, 4129.230469, 4727.692383, 500.000000, 8134.000000, 8352.000000, 0.000000, 0.000000, 0.000000, 0.000000, 378.500000, 1557648611.607862, 4.000000, 4.000000, 4.000000, 4.000000, 4.000000
4.000000, 0.000000, 3920.000000, 4250.769043, 4103.076660, 4116.410156, 4726.666504, 16121.000000, 8132.000000, 8349.000000, 0.000000, 0.000000, 0.000000, 0.000000, 386.299988, 1557648611.615662, 4.000000, 4.000000, 4.000000, 4.000000, 4.000000
5.000000, 0.000000, 3926.153809, 4243.589844, 4085.128174, 4116.922852, 4728.717773, 500.000000, 8131.000000, 8344.000000, 0.000000, 0.000000, 0.000000, 0.000000, 394.000000, 1557648611.623362, 4.000000, 4.000000, 4.000000, 4.000000, 4.000000
6.000000, 0.000000, 3936.410156, 4249.743652, 4064.102539, 4125.641113, 4720.512695, 16104.000000, 8139.000000, 8337.000000, 0.000000, 0.000000, 0.000000, 0.000000, 402.000000, 1557648611.631362, 4.000000, 4.000000, 4.000000, 4.000000, 4.000000
7.000000, 0.000000, 3934.871582, 4250.256348, 4082.563965, 4120.512695, 4705.641113, 500.000000, 8133.000000, 8345.000000, 0.000000, 0.000000, 0.000000, 0.000000, 409.900024, 1557648611.639262, 4.000000, 4.000000, 4.000000, 4.000000, 4.000000
8.000000, 0.000000, 3931.281982, 4235.897461, 4097.948730, 4111.281738, 4704.615234, 500.000000, 8133.000000, 8343.000000, 0.000000, 0.000000, 0.000000, 0.000000, 417.900024, 1557648611.647262, 4.000000, 4.000000, 4.000000, 4.000000, 4.000000
9.000000, 0.000000, 3941.538330, 4226.153809, 4088.205078, 4111.794922, 4709.743652, 16140.000000, 8138.000000, 8334.000000, 0.000000, 0.000000, 0.000000, 0.000000, 425.799988, 1557648611.655162, 4.000000, 4.000000, 4.000000, 4.000000, 4.000000
10.000000, 0.000000, 3945.640869, 4228.205078, 4081.538330, 4114.871582, 4698.461426, 500.000000, 8138.000000, 8330.000000, 0.000000, 0.000000, 0.000000, 0.000000, 433.799988, 1557648611.663162, 4.000000, 4.000000, 4.000000, 4.000000, 4.000000
11.000000, 0.000000, 3940.512695, 4230.256348, 4083.076904, 4116.410156, 4682.563965, 16174.000000, 8138.000000, 8343.000000, 0.000000, 0.000000, 0.000000, 0.000000, 441.500000, 1557648611.670862, 4.000000, 4.000000, 4.000000, 4.000000, 4.000000
12.000000, 0.000000, 3943.589600, 4228.205078, 4082.051270, 4117.948730, 4674.358887, 500.000000, 8132.000000, 8351.000000, 0.000000, 0.000000, 0.000000, 0.000000, 449.400000, 1557648611.678762, 4.000000, 4.000000, 4.000000, 4.000000, 4.000000
13.000000, 0.000000, 3943.076904, 4226.666504, 4079.487061, 4118.461426, 4666.153809, 500.000000, 8133.000000, 8347.000000, 0.000000, 0.000000, 0.000000, 0.000000, 457.200001, 1557648611.686562, 4.000000, 4.000000, 4.000000, 4.000000, 4.000000
14.000000, 0.000000, 3940.512695, 4222.563965, 4082.563965, 4118.974121, 4665.641113, 450.000000, 8133.000000, 8353.000000, 0.000000, 0.000000, 0.000000, 0.000000, 464.900000, 1557648611.694262, 4.000000, 4.000000, 4.000000, 4.000000, 4.000000
15.000000, 0.000000, 3946.666504, 4215.384277, 4095.384521, 4111.794922, 4670.256348, 16174.000000, 8141.000000, 8350.000000, 0.000000, 0.000000, 0.000000, 0.000000, 472.900002, 1557648611.702262, 4.000000, 4.000000, 4.000000, 4.000000, 4.000000
16.000000, 0.000000, 3952.307617, 4222.051270, 4107.179199, 4104.102539, 4657.948730, 0.000000, 8143.000000, 8348.000000, 0.000000, 0.000000, 0.000000, 0.000000, 480.799999, 1557648611.710162, 4.000000, 4.000000, 4.000000, 4.000000, 4.000000
17.000000, 0.000000, 3955.384521, 4233.846191, 4105.127930, 4109.743652, 4643.589844, 0.000000, 8138.000000, 8353.000000, 0.000000, 0.000000, 0.000000, 0.000000, 488.799999, 1557648611.718162, 4.000000, 4.000000, 4.000000, 4.000000, 4.000000
18.000000, 0.000000, 3957.435791, 4231.281738, 4105.127930, 4112.820313, 4640.512695, 0.000000, 8138.000000, 8349.000000, 0.000000, 0.000000, 0.000000, 0.000000, 496.700001, 1557648611.726062, 4.000000, 4.000000, 4.000000, 4.000000, 4.000000
19.000000, 0.000000, 3956.410156, 4227.179199, 4110.256348, 4110.769043, 4632.307617, 0.000000, 8138.000000, 8354.000000, 0.000000, 0.000000, 0.000000, 0.000000, 504.400002, 1557648611.733762, 4.000000, 4.000000, 4.000000, 4.000000, 4.000000
20.000000, 0.000000, 3963.589600, 4236.922852, 4107.692383, 4115.384277, 4626.666504, 0.000000, 8140.000000, 8357.000000, 0.000000, 0.000000, 0.000000, 0.000000, 512.199997, 1557648611.741562, 4.000000, 4.000000, 4.000000, 4.000000, 4.000000
21.000000, 0.000000, 3985.128174, 4234.358887, 4104.615234, 4126.153809, 4635.897461, 0.000000, 8145.000000, 8359.000000, 0.000000, 0.000000, 0.000000, 0.000000, 520.000000, 1557648611.749362, 4.000000, 4.000000, 4.000000, 4.000000, 4.000000
22.000000, 0.000000, 3996.923096, 4220.512695, 4110.769043, 4130.256348, 4642.563965, 0.000000, 8154.000000, 8341.000000, 0.000000, 0.000000, 0.000000, 0.000000, 528.000000, 1557648611.757362, 4.000000, 4.000000, 4.000000, 4.000000, 4.000000
23.000000, 0.000000, 3983.589600, 4219.487305, 4106.666504, 4127.179199, 4633.333008, 0.000000, 8148.000000, 8340.000000, 0.000000, 0.000000, 0.000000, 0.000000, 535.900002, 1557648611.765262, 4.000000, 4.000000, 4.000000, 4.000000, 4.000000
24.000000, 0.000000, 3971.794678, 4227.692383, 4089.230713, 4124.102539, 4613.333008, 0.000000, 8151.000000, 8349.000000, 0.000000, 0.000000, 0.000000, 0.000000, 543.900002, 1557648611.773262, 4.000000, 4.000000, 4.000000, 4.000000, 4.000000
25.000000, 0.000000, 3977.948730, 4230.769043, 4086.153809, 4117.436035, 4591.794922, 0.000000, 8149.000000, 8349.000000, 0.000000, 0.000000, 0.000000, 0.000000, 551.800003, 1557648611.781162, 4.000000, 4.000000, 4.000000, 4.000000, 4.000000
26.000000, 0.000000, 3986.153809, 4228.717773, 4109.230469, 4117.948730, 4586.153809, 0.000000, 8152.000000, 8337.000000, 0.000000, 0.000000, 0.000000, 0.000000, 559.699997, 1557648611.789062, 4.000000, 4.000000, 4.000000, 4.000000, 4.000000
27.000000, 0.000000, 3988.717773, 4229.230469, 4118.974121, 4126.666504, 4590.769043, 0.000000, 8153.000000, 8335.000000, 0.000000, 0.000000, 0.000000, 0.000000, 567.500000, 1557648611.796862, 4.000000, 4.000000, 4.000000, 4.000000, 4.000000
28.000000, 0.000000, 3987.179443, 4233.333008, 4096.922852, 4126.153809, 4577.948730, 0.000000, 8151.000000, 8336.000000, 0.000000, 0.000000, 0.000000, 0.000000, 575.199997, 1557648611.804562, 4.000000, 4.000000, 4.000000, 4.000000, 4.000000
29.000000, 0.000000, 3984.615234, 4229.230469, 4084.102539, 4124.615234, 4555.384277, 0.000000, 8149.000000, 8338.000000, 0.000000, 0.000000, 0.000000, 0.000000, 583.000000, 1557648611.812362, 4.000000, 4.000000, 4.000000, 4.000000, 4.000000
30.000000, 0.000000, 3982.563965, 4221.025391, 4103.076660, 4129.230469, 4543.589844, 0.000000, 8145.000000, 8340.000000, 0.000000, 0.000000, 0.000000, 0.000000, 590.899994, 1557648611.820262, 4.000000, 4.000000, 4.000000, 4.000000, 4.000000
31.000000, 0.000000, 3969.743408, 4220.512695, 4105.127930, 4124.102539, 4532.307617, 0.000000, 8141.000000, 8345.000000, 0.000000, 0.000000, 0.000000, 0.000000, 598.899994, 1557648611.828262, 4.000000, 4.000000, 4.000000, 4.000000, 4.000000
32.000000, 0.000000, 3950.769043, 4219.487305, 4085.640869, 4112.307617, 4507.179199, 0.000000, 8141.000000, 8341.000000, 0.000000, 0.000000, 0.000000, 0.000000, 606.800003, 1557648611.836162, 4.000000, 4.000000, 4.000000, 4.000000, 4.000000
33.000000, 0.000000, 3960.512695, 4209.230469, 4089.230713, 4110.769043, 4490.769043, 0.000000, 8141.000000, 8349.000000, 0.000000, 0.000000, 0.000000, 0.000000, 614.699997, 1557648611.844062, 4.000000, 4.000000, 4.000000, 4.000000, 4.000000
34.000000, 0.000000, 3988.205078, 4211.281738, 4097.948730, 4113.846191, 4495.384277, 0.000000, 8140.000000, 8348.000000, 0.000000, 0.000000, 0.000000, 0.000000, 622.699997, 1557648611.852062, 4.000000, 4.000000, 4.000000, 4.000000, 4.000000
35.000000, 0.000000, 3982.051270, 4217.436035, 4090.769043, 4106.666504, 4482.563965, 0.000000, 8144.000000, 8337.000000, 0.000000, 0.000000, 0.000000, 0.000000, 630.600006, 1557648611.859962, 4.000000, 4.000000, 4.000000, 4.000000, 4.000000
36.000000, 0.000000, 3966.666504, 4215.897461, 4087.179443, 4104.102539, 4457.435547, 0.000000, 8148.000000, 8338.000000, 0.000000, 0.000000, 0.000000, 0.000000, 638.399994, 1557648611.867762, 4.000000, 4.000000, 4.000000, 4.000000, 4.000000
37.000000, 0.000000, 3980.512695, 4216.410156, 4084.102539, 4105.127930, 4456.922852, 0.000000, 8145.000000, 8348.000000, 0.000000, 0.000000, 0.000000, 0.000000, 646.100006, 1557648611.875462, 4.000000, 4.000000, 4.000000, 4.000000, 4.000000
38.000000, 0.000000, 3992.307617, 4218.974121, 4076.410156, 4101.025391, 4460.512695, 0.000000, 8144.000000, 8351.000000, 0.000000, 0.000000, 0.000000, 0.000000, 654.100006, 1557648611.883462, 4.000000, 4.000000, 4.000000, 4.000000, 4.000000
39.000000, 0.000000, 3988.717773, 4223.076660, 4089.743408, 4109.230469, 4444.615234, 0.000000, 8147.000000, 8341.000000, 0.000000, 0.000000, 0.000000, 0.000000, 662.000000, 1557648611.891362, 4.000000, 4.000000, 4.000000, 4.000000, 4.000000
40.000000, 0.000000, 3991.794678, 4223.076660, 4100.000000, 4114.871582, 4432.307617, 0.000000, 8145.000000, 8347.000000, 0.000000, 0.000000, 0.000000, 0.000000, 669.899994, 1557648611.899262, 4.000000, 4.000000, 4.000000, 4.000000, 4.000000
41.000000, 0.000000, 3988.717773, 4215.384277, 4072.820313, 4102.563965, 4415.384277, 0.000000, 8148.000000, 8352.000000, 0.000000, 0.000000, 0.000000, 0.000000, 677.899994, 1557648611.907262, 4.000000, 4.000000, 4.000000, 4.000000, 4.000000
42.000000, 0.000000, 3968.717773, 4213.333008, 4052.307617, 4095.897217, 4380.000000, 0.000000, 8154.000000, 8349.000000, 0.000000, 0.000000, 0.000000, 0.000000, 685.800003, 1557648611.915162, 4.000000, 4.000000, 4.000000, 4.000000, 4.000000
43.000000, 0.000000, 3956.410156, 4214.871582, 4061.538330, 4100.000000, 4356.410156, 0.000000, 8149.000000, 8347.000000, 0.000000, 0.000000, 0.000000, 0.000000, 693.800003, 1557648611.923162, 4.000000, 4.000000, 4.000000, 4.000000, 4.000000
44.000000, 0.000000, 3960.512695, 4213.333008, 4075.897217, 4098.461426, 4346.666504, 0.000000, 8148.000000, 8353.000000, 0.000000, 0.000000, 0.000000, 0.000000, 701.500000, 1557648611.930862, 4.000000, 4.000000, 4.000000, 4.000000, 4.000000
45.000000, 0.000000, 3967.692139, 4212.820313, 4077.948730, 4095.897217, 4330.256348, 0.000000, 8151.000000, 8351.000000, 0.000000, 0.000000, 0.000000, 0.000000, 709.299988, 1557648611.938662, 4.000000, 4.000000, 4.000000, 4.000000, 4.000000
46.000000, 0.000000, 3970.256348, 4210.769043, 4070.769043, 4099.487305, 4325.127930, 0.000000, 8151.000000, 8353.000000, 0.000000, 0.000000, 0.000000, 0.000000, 717.100006, 1557648611.946462, 4.000000, 4.000000, 4.000000, 4.000000, 4.000000
47.000000, 0.000000, 3972.307617, 4208.205078, 4068.717773, 4102.563965, 4329.743652, 0.000000, 8157.000000, 8361.000000, 0.000000, 0.000000, 0.000000, 0.000000, 725.000000, 1557648611.954362, 4.000000, 4.000000, 4.000000, 4.000000, 4.000000
48.000000, 0.000000, 3976.410156, 4216.410156, 4066.153809, 4099.487305, 4316.922852, 0.000000, 8157.000000, 8344.000000, 0.000000, 0.000000, 0.000000, 0.000000, 733.000000, 1557648611.962362, 4.000000, 4.000000, 4.000000, 4.000000, 4.000000
49.000000, 0.000000, 3969.230713, 4218.461426, 4051.794678, 4096.922852, 4294.871582, 0.000000, 8156.000000, 8346.000000, 0.000000, 0.000000, 0.000000, 0.000000, 740.899994, 1557648611.970262, 4.000000, 4.000000, 4.000000, 4.000000, 4.000000
50.000000, 0.000000, 3955.897461, 4206.153809, 4042.563965, 4101.025391, 4287.692383, 0.000000, 8154.000000, 8355.000000, 0.000000, 0.000000, 0.000000, 0.000000, 748.899994, 1557648611.978262, 4.000000, 4.000000, 4.000000, 4.000000, 4.000000
51.000000, 0.000000, 3956.923096, 4201.025391, 4054.358887, 4100.000000, 4283.076660, 0.000000, 8153.000000, 8361.000000, 0.000000, 0.000000, 0.000000, 0.000000, 756.799988, 1557648611.986162, 4.000000, 4.000000, 4.000000, 4.000000, 4.000000
52.000000, 0.000000, 3955.897461, 4198.974121, 4065.128174, 4101.025391, 4265.127930, 0.000000, 8155.000000, 8349.000000, 0.000000, 0.000000, 0.000000, 0.000000, 764.600006, 1557648611.993962, 4.000000, 4.000000, 4.000000, 4.000000, 4.000000
53.000000, 0.000000, 3946.666504, 4193.846191, 4057.948730, 4099.487305, 4248.717773, 0.000000, 8154.000000, 8351.000000, 0.000000, 0.000000, 0.000000, 0.000000, 772.299988, 1557648612.001662, 4.000000, 4.000000, 4.000000, 4.000000, 4.000000
54.000000, 0.000000, 3948.205078, 4198.461426, 4052.820313, 4091.794678, 4242.563965, 0.000000, 8154.000000, 8365.000000, 0.000000, 0.000000, 0.000000, 0.000000, 780.100006, 1557648612.009462, 4.000000, 4.000000, 4.000000, 4.000000, 4.000000
55.000000, 0.000000, 3949.230713, 4207.692383, 4049.743408, 4092.307617, 4233.333008, 0.000000, 8150.000000, 8359.000000, 0.000000, 0.000000, 0.000000, 0.000000, 788.000000, 1557648612.017362, 4.000000, 4.000000, 4.000000, 4.000000, 4.000000
56.000000, 0.000000, 3943.589600, 4203.076660, 4034.871582, 4096.922852, 4214.871582, 0.000000, 8151.000000, 8354.000000, 0.000000, 0.000000, 0.000000, 0.000000, 795.899994, 1557648612.025262, 4.000000, 4.000000, 4.000000, 4.000000, 4.000000
57.000000, 0.000000, 3947.692139, 4194.358887, 4033.333252, 4097.436035, 4193.333008, 0.000000, 8148.000000, 8361.000000, 0.000000, 0.000000, 0.000000, 0.000000, 803.899994, 1557648612.033262, 4.000000, 4.000000, 4.000000, 4.000000, 4.000000
58.000000, 0.000000, 3954.358887, 4200.000000, 4050.256348, 4100.000000, 4185.641113, 0.000000, 8151.000000, 8360.000000, 0.000000, 0.000000, 0.000000, 0.000000, 811.799988, 1557648612.041162, 4.000000, 4.000000, 4.000000, 4.000000, 4.000000
59.000000, 0.000000, 3944.615234, 4207.179199, 4048.205078, 4105.641113, 4183.589844, 0.000000, 8145.000000, 8361.000000, 0.000000, 0.000000, 0.000000, 0.000000, 819.799988, 1557648612.049162, 4.000000, 4.000000, 4.000000, 4.000000, 4.000000
60.000000, 0.000000, 3920.512695, 4190.769043, 4024.102539, 4100.512695, 4156.922852, 0.000000, 8140.000000, 8363.000000, 0.000000, 0.000000, 0.000000, 0.000000, 827.700012, 1557648612.057062, 4.000000, 4.000000, 4.000000, 4.000000, 4.000000
61.000000, 0.000000, 3902.051270, 4177.436035, 4012.820313, 4088.205078, 4115.384277, 0.000000, 8144.000000, 8361.000000, 0.000000, 0.000000, 0.000000, 0.000000, 835.500000, 1557648612.064862, 4.000000, 4.000000, 4.000000, 4.000000, 4.000000
62.000000, 0.000000, 3920.000000, 4201.025391, 4032.307617, 4088.205078, 4115.384277, 0.000000, 8145.000000, 8359.000000, 0.000000, 0.000000, 0.000000, 0.000000, 843.200012, 1557648612.072562, 4.000000, 4.000000, 4.000000, 4.000000, 4.000000
63.000000, 0.000000, 3961.538330, 4228.205078, 4052.307617, 4097.948730, 4143.076660, 0.000000, 8146.000000, 8368.000000, 0.000000, 0.000000, 0.000000, 0.000000, 850.899994, 1557648612.080262, 4.000000, 4.000000, 4.000000, 4.000000, 4.000000
64.000000, 0.000000, 3966.666504, 4217.948730, 4047.179443, 4104.102539, 4133.333008, 500.000000, 8145.000000, 8365.000000, 0.000000, 0.000000, 0.000000, 0.000000, 858.899994, 1557648612.088262, 4.000000, 4.000000, 4.000000, 4.000000, 4.000000
65.000000, 0.000000, 3951.794678, 4202.563965, 4037.948730, 4100.512695, 4102.051270, 500.000000, 8143.000000, 8355.000000, 0.000000, 0.000000, 0.000000, 0.000000, 866.799988, 1557648612.096162, 4.000000, 4.000000, 4.000000, 4.000000, 4.000000
66.000000, 0.000000, 3957.948730, 4211.281738, 4037.948730, 4088.717773, 4092.307617, 16207.000000, 8144.000000, 8349.000000, 0.000000, 0.000000, 0.000000, 0.000000, 874.799988, 1557648612.104162, 4.000000, 4.000000, 4.000000, 4.000000, 4.000000
67.000000, 0.000000, 3961.025635, 4217.436035, 4036.410156, 4087.179443, 4087.179443, 500.000000, 8148.000000, 8364.000000, 0.000000, 0.000000, 0.000000, 0.000000, 882.700012, 1557648612.112062, 4.000000, 4.000000, 4.000000, 4.000000, 4.000000
68.000000, 0.000000, 3958.974365, 4223.589844, 4048.717773, 4096.410156, 4078.974365, 16120.000000, 8143.000000, 8362.000000, 0.000000, 0.000000, 0.000000, 0.000000, 890.700012, 1557648612.120062, 4.000000, 4.000000, 4.000000, 4.000000, 4.000000
69.000000, 0.000000, 3962.051270, 4234.358887, 4068.717773, 4095.384521, 4082.563965, 500.000000, 8138.000000, 8355.000000, 0.000000, 0.000000, 0.000000, 0.000000, 898.399994, 1557648612.127762, 4.000000, 4.000000, 4.000000, 4.000000, 4.000000
70.000000, 0.000000, 3949.743408, 4221.025391, 4060.000000, 4084.615234, 4076.410156, 16111.000000, 8141.000000, 8353.000000, 0.000000, 0.000000, 0.000000, 0.000000, 906.100006, 1557648612.135462, 4.000000, 4.000000, 4.000000, 4.000000, 4.000000
71.000000, 0.000000, 3933.333252, 4200.512695, 4037.435791, 4083.589600, 4051.794678, 500.000000, 8147.000000, 8353.000000, 0.000000, 0.000000, 0.000000, 0.000000, 914.100006, 1557648612.143462, 4.000000, 4.000000, 4.000000, 4.000000, 4.000000
72.000000, 0.000000, 3940.000000, 4211.281738, 4037.435791, 4092.307617, 4040.512695, 500.000000, 8150.000000, 8350.000000, 0.000000, 0.000000, 0.000000, 0.000000, 922.000000, 1557648612.151362, 4.000000, 4.000000, 4.000000, 4.000000, 4.000000
73.000000, 0.000000, 3941.538330, 4221.538574, 4037.948730, 4090.769043, 4035.897217, 16140.000000, 8145.000000, 8355.000000, 0.000000, 0.000000, 0.000000, 0.000000, 930.000000, 1557648612.159362, 4.000000, 4.000000, 4.000000, 4.000000, 4.000000
74.000000, 0.000000, 3922.563965, 4202.563965, 4024.615234, 4085.128174, 4011.281982, 500.000000, 8145.000000, 8355.000000, 0.000000, 0.000000, 0.000000, 0.000000, 937.899994, 1557648612.167262, 4.000000, 4.000000, 4.000000, 4.000000, 4.000000
75.000000, 0.000000, 3913.845947, 4192.307617, 4024.615234, 4086.153809, 3993.333252, 16187.000000, 8146.000000, 8345.000000, 0.000000, 0.000000, 0.000000, 0.000000, 945.899994, 1557648612.175262, 4.000000, 4.000000, 4.000000, 4.000000, 4.000000
76.000000, 0.000000, 3928.205078, 4212.307617, 4032.307617, 4088.205078, 4001.538330, 500.000000, 8145.000000, 8345.000000, 0.000000, 0.000000, 0.000000, 0.000000, 953.799988, 1557648612.183162, 4.000000, 4.000000, 4.000000, 4.000000, 4.000000
77.000000, 0.000000, 3935.384521, 4219.487305, 4028.205078, 4089.743408, 3995.897217, 500.000000, 8145.000000, 8353.000000, 0.000000, 0.000000, 0.000000, 0.000000, 961.500000, 1557648612.190862, 4.000000, 4.000000, 4.000000, 4.000000, 4.000000
78.000000, 0.000000, 3923.076904, 4204.615234, 4018.461426, 4086.666504, 3975.384521, 450.000000, 8147.000000, 8340.000000, 0.000000, 0.000000, 0.000000, 0.000000, 969.299988, 1557648612.198662, 4.000000, 4.000000, 4.000000, 4.000000, 4.000000
79.000000, 0.000000, 3918.461426, 4207.692383, 4007.692139, 4080.512695, 3970.256348, 16187.000000, 8142.000000, 8339.000000, 0.000000, 0.000000, 0.000000, 0.000000, 977.000000, 1557648612.206362, 4.000000, 4.000000, 4.000000, 4.000000, 4.000000
80.000000, 0.000000, 3923.589600, 4217.948730, 4000.512695, 4080.512695, 3966.153809, 450.000000, 8143.000000, 8347.000000, 0.000000, 0.000000, 0.000000, 0.000000, 985.000000, 1557648612.214362, 4.000000, 4.000000, 4.000000, 4.000000, 4.000000
81.000000, 0.000000, 3929.743408, 4215.384277, 4000.512695, 4087.692139, 3957.948730, 450.000000, 8141.000000, 8348.000000, 0.000000, 0.000000, 0.000000, 0.000000, 992.900024, 1557648612.222262, 4.000000, 4.000000, 4.000000, 4.000000, 4.000000
82.000000, 0.000000, 3937.948730, 4220.512695, 4004.102539, 4092.307617, 3960.512695, 450.000000, 8145.000000, 8345.000000, 0.000000, 0.000000, 0.000000, 1.000000, 0.900024, 1557648612.230262, 4.000000, 4.000000, 4.000000, 4.000000, 4.000000
83.000000, 0.000000, 3931.794678, 4225.641113, 4006.153809, 4085.128174, 3960.512695, 16187.000000, 8140.000000, 8345.000000, 0.000000, 0.000000, 0.000000, 1.000000, 8.799988, 1557648612.238162, 4.000000, 4.000000, 4.000000, 4.000000, 4.000000
84.000000, 0.000000, 3911.281982, 4202.051270, 4008.205078, 4078.974365, 3953.333252, 450.000000, 8140.000000, 8349.000000, 0.000000, 0.000000, 0.000000, 1.000000, 16.799988, 1557648612.246162, 4.000000, 4.000000, 4.000000, 4.000000, 4.000000
85.000000, 0.000000, 3903.589600, 4179.487305, 4002.051270, 4088.717773, 3945.128174, 450.000000, 8139.000000, 8347.000000, 0.000000, 0.000000, 0.000000, 1.000000, 24.700012, 1557648612.254062, 4.000000, 4.000000, 4.000000, 4.000000, 4.000000
86.000000, 0.000000, 3908.717773, 4189.230469, 3996.923096, 4087.692139, 3930.769043, 450.000000, 8139.000000, 8354.000000, 0.000000, 0.000000, 0.000000, 1.000000, 32.400024, 1557648612.261762, 4.000000, 4.000000, 4.000000, 4.000000, 4.000000
87.000000, 0.000000, 3911.794678, 4205.641113, 4003.076904, 4080.000000, 3922.051270, 16187.000000, 8135.000000, 8360.000000, 0.000000, 0.000000, 0.000000, 1.000000, 40.200012, 1557648612.269562, 4.000000, 4.000000, 4.000000, 4.000000, 4.000000
88.000000, 0.000000, 3925.640869, 4215.384277, 4017.948730, 4094.871582, 3931.794678, 450.000000, 8140.000000, 8348.000000, 0.000000, 0.000000, 0.000000, 1.000000, 48.099976, 1557648612.277462, 4.000000, 4.000000, 4.000000, 4.000000, 4.000000
89.000000, 0.000000, 3938.461426, 4214.871582, 4035.897217, 4103.076660, 3932.820313, 450.000000, 8139.000000, 8355.000000, 0.000000, 0.000000, 0.000000, 1.000000, 56.099976, 1557648612.285462, 4.000000, 4.000000, 4.000000, 4.000000, 4.000000
90.000000, 0.000000, 3927.179443, 4210.256348, 4039.487061, 4090.769043, 3911.794678, 450.000000, 8137.000000, 8365.000000, 0.000000, 0.000000, 0.000000, 1.000000, 63.900024, 1557648612.293262, 4.000000, 4.000000, 4.000000, 4.000000, 4.000000
91.000000, 0.000000, 3909.230713, 4216.922852, 4034.871582, 4090.769043, 3895.897461, 16187.000000, 8140.000000, 8365.000000, 0.000000, 0.000000, 0.000000, 1.000000, 71.900024, 1557648612.301262, 4.000000, 4.000000, 4.000000, 4.000000, 4.000000
92.000000, 0.000000, 3898.974365, 4218.974121, 4048.717773, 4104.615234, 3893.333252, 450.000000, 8138.000000, 8353.000000, 0.000000, 0.000000, 0.000000, 1.000000, 79.799988, 1557648612.309162, 4.000000, 4.000000, 4.000000, 4.000000, 4.000000
93.000000, 0.000000, 3896.923096, 4201.025391, 4066.666504, 4101.538574, 3891.794678, 450.000000, 8138.000000, 8362.000000, 0.000000, 0.000000, 0.000000, 1.000000, 87.700012, 1557648612.317062, 4.000000, 4.000000, 4.000000, 4.000000, 4.000000
94.000000, 0.000000, 3899.487061, 4190.256348, 4062.563965, 4087.692139, 3893.333252, 450.000000, 8136.000000, 8365.000000, 0.000000, 0.000000, 0.000000, 1.000000, 95.500000, 1557648612.324862, 4.000000, 4.000000, 4.000000, 4.000000, 4.000000
95.000000, 0.000000, 3904.102539, 4198.974121, 4051.281982, 4088.717773, 3893.845947, 16187.000000, 8138.000000, 8359.000000, 0.000000, 0.000000, 0.000000, 1.000000, 103.200012, 1557648612.332562, 4.000000, 4.000000, 4.000000, 4.000000, 4.000000
96.000000, 0.000000, 3910.769043, 4200.000000, 4048.205078, 4091.281982, 3884.102539, 450.000000, 8136.000000, 8361.000000, 0.000000, 0.000000, 0.000000, 1.000000, 111.099976, 1557648612.340462, 4.000000, 4.000000, 4.000000, 4.000000, 4.000000
97.000000, 0.000000, 3907.692139, 4194.871582, 4036.410156, 4085.128174, 3873.845947, 450.000000, 8139.000000, 8361.000000, 0.000000, 0.000000, 0.000000, 1.000000, 119.000000, 1557648612.348362, 4.000000, 4.000000, 4.000000, 4.000000, 4.000000
98.000000, 0.000000, 3895.384521, 4197.948730, 4018.461426, 4081.025635, 3876.410156, 450.000000, 8146.000000, 8360.000000, 0.000000, 0.000000, 0.000000, 1.000000, 127.000000, 1557648612.356362, 4.000000, 4.000000, 4.000000, 4.000000, 4.000000
99.000000, 0.000000, 3896.923096, 4197.948730, 4010.256348, 4077.948730, 3885.640869, 16187.000000, 8142.000000, 8367.000000, 0.000000, 0.000000, 0.000000, 1.000000, 134.900024, 1557648612.364262, 4.000000, 4.000000, 4.000000, 4.000000, 4.000000
100.000000, 0.000000, 3910.769043, 4198.461426, 4016.923096, 4082.563965, 3891.794678, 450.000000, 8142.000000, 8362.000000, 0.000000, 0.000000, 0.000000, 1.000000, 142.799988, 1557648612.372162, 4.000000, 4.000000, 4.000000, 4.000000, 4.000000
101.000000, 0.000000, 3911.281982, 4197.436035, 4029.230713, 4087.692139, 3892.820313, 450.000000, 8144.000000, 8352.000000, 0.000000, 0.000000, 0.000000, 1.000000, 150.799988, 1557648612.380162, 4.000000, 4.000000, 4.000000, 4.000000, 4.000000
102.000000, 0.000000, 3905.640869, 4188.717773, 4040.000000, 4085.640869, 3892.820313, 450.000000, 8140.000000, 8349.000000, 0.000000, 0.000000, 0.000000, 1.000000, 158.700012, 1557648612.388062, 4.000000, 4.000000, 4.000000, 4.000000, 4.000000
103.000000, 0.000000, 3914.871582, 4193.333008, 4053.845947, 4088.205078, 3896.410156, 16187.000000, 8141.000000, 8361.000000, 0.000000, 0.000000, 0.000000, 1.000000, 166.500000, 1557648612.395862, 4.000000, 4.000000, 4.000000, 4.000000, 4.000000
104.000000, 0.000000, 3912.820313, 4197.948730, 4045.640869, 4083.589600, 3890.256348, 450.000000, 8146.000000, 8366.000000, 0.000000, 0.000000, 0.000000, 1.000000, 174.200012, 1557648612.403562, 4.000000, 4.000000, 4.000000, 4.000000, 4.000000
105.000000, 0.000000, 3895.384521, 4185.127930, 4015.897217, 4076.410156, 3871.281982, 450.000000, 8145.000000, 8351.000000, 0.000000, 0.000000, 0.000000, 1.000000, 182.000000, 1557648612.411362, 4.000000, 4.000000, 4.000000, 4.000000, 4.000000
106.000000, 0.000000, 3900.512695, 4182.051270, 4003.589600, 4088.205078, 3867.692139, 450.000000, 8140.000000, 8348.000000, 0.000000, 0.000000, 0.000000, 1.000000, 189.900024, 1557648612.419262, 4.000000, 4.000000, 4.000000, 4.000000, 4.000000
107.000000, 0.000000, 3908.717773, 4189.743652, 4006.153809, 4097.436035, 3883.589600, 16187.000000, 8141.000000, 8361.000000, 0.000000, 0.000000, 0.000000, 1.000000, 197.900024, 1557648612.427262, 4.000000, 4.000000, 4.000000, 4.000000, 4.000000
108.000000, 0.000000, 3896.410156, 4181.538574, 3989.230713, 4089.230713, 3890.256348, 450.000000, 8139.000000, 8354.000000, 0.000000, 0.000000, 0.000000, 1.000000, 205.799988, 1557648612.435162, 4.000000, 4.000000, 4.000000, 4.000000, 4.000000
109.000000, 0.000000, 3895.384521, 4178.461426, 3970.769043, 4081.025635, 3887.179443, 450.000000, 8140.000000, 8358.000000, 0.000000, 0.000000, 0.000000, 1.000000, 213.700012, 1557648612.443062, 4.000000, 4.000000, 4.000000, 4.000000, 4.000000
110.000000, 0.000000, 3908.717773, 4195.897461, 3967.179443, 4079.487061, 3890.256348, 450.000000, 8144.000000, 8364.000000, 0.000000, 0.000000, 0.000000, 1.000000, 221.700012, 1557648612.451062, 4.000000, 4.000000, 4.000000, 4.000000, 4.000000
111.000000, 0.000000, 3901.538330, 4206.666504, 3964.102539, 4075.897217, 3887.692139, 16187.000000, 8137.000000, 8361.000000, 0.000000, 0.000000, 0.000000, 1.000000, 229.400024, 1557648612.458762, 4.000000, 4.000000, 4.000000, 4.000000, 4.000000
112.000000, 0.000000, 3887.692139, 4198.461426, 3961.538330, 4068.205078, 3878.461426, 450.000000, 8137.000000, 8360.000000, 0.000000, 0.000000, 0.000000, 1.000000, 237.200012, 1557648612.466562, 4.000000, 4.000000, 4.000000, 4.000000, 4.000000
113.000000, 0.000000, 3897.948730, 4195.897461, 3967.179443, 4071.281982, 3887.692139, 450.000000, 8135.000000, 8361.000000, 0.000000, 0.000000, 0.000000, 1.000000, 245.099976, 1557648612.474462, 4.000000, 4.000000, 4.000000, 4.000000, 4.000000
114.000000, 0.000000, 3919.487061, 4210.256348, 3990.769043, 4080.512695, 3906.153809, 450.000000, 8143.000000, 8359.000000, 0.000000, 0.000000, 0.000000, 1.000000, 253.099976, 1557648612.482462, 4.000000, 4.000000, 4.000000, 4.000000, 4.000000
115.000000, 0.000000, 3928.717773, 4209.743652, 4024.102539, 4084.102539, 3915.384521, 16187.000000, 8141.000000, 8355.000000, 0.000000, 0.000000, 0.000000, 1.000000, 261.000000, 1557648612.490362, 4.000000, 4.000000, 4.000000, 4.000000, 4.000000
116.000000, 0.000000, 3931.281982, 4206.153809, 4038.461426, 4084.102539, 3929.230713, 450.000000, 8144.000000, 8368.000000, 0.000000, 0.000000, 0.000000, 1.000000, 268.900024, 1557648612.498262, 4.000000, 4.000000, 4.000000, 4.000000, 4.000000
117.000000, 0.000000, 3933.845947, 4221.025391, 4017.435791, 4085.640869, 3933.845947, 450.000000, 8147.000000, 8357.000000, 0.000000, 0.000000, 0.000000, 1.000000, 276.900024, 1557648612.506262, 4.000000, 4.000000, 4.000000, 4.000000, 4.000000
118.000000, 0.000000, 3927.179443, 4213.846191, 3995.384521, 4083.076904, 3910.769043, 450.000000, 8149.000000, 8350.000000, 0.000000, 0.000000, 0.000000, 1.000000, 284.799988, 1557648612.514162, 4.000000, 4.000000, 4.000000, 4.000000, 4.000000
119.000000, 0.000000, 3918.974365, 4196.922852, 4003.076904, 4080.512695, 3902.563965, 16187.000000, 8154.000000, 8347.000000, 0.000000, 0.000000, 0.000000, 1.000000, 292.599976, 1557648612.521962, 4.000000, 4.000000, 4.000000, 4.000000, 4.000000
120.000000, 0.000000, 3930.769043, 4211.794922, 4016.410156, 4093.845947, 3927.179443, 450.000000, 8155.000000, 8358.000000, 0.000000, 0.000000, 0.000000, 1.000000, 300.299988, 1557648612.529662, 4.000000, 4.000000, 4.000000, 4.000000, 4.000000
121.000000, 0.000000, 3934.358887, 4217.436035, 4015.384521, 4103.589844, 3930.769043, 450.000000, 8158.000000, 8357.000000, 0.000000, 0.000000, 0.000000, 1.000000, 308.099976, 1557648612.537462, 4.000000, 4.000000, 4.000000, 4.000000, 4.000000
122.000000, 0.000000, 3917.435791, 4196.922852, 4005.640869, 4094.871582, 3910.769043, 450.000000, 8156.000000, 8348.000000, 0.000000, 0.000000, 0.000000, 1.000000, 316.000000, 1557648612.545362, 4.000000, 4.000000, 4.000000, 4.000000, 4.000000
123.000000, 0.000000, 3931.794678, 4203.589844, 4016.923096, 4081.025635, 3931.281982, 16187.000000, 8154.000000, 8357.000000, 0.000000, 0.000000, 0.000000, 1.000000, 324.000000, 1557648612.553362, 4.000000, 4.000000, 4.000000, 4.000000, 4.000000
124.000000, 0.000000, 3970.769043, 4226.153809, 4041.538330, 4076.923096, 3975.897217, 450.000000, 8155.000000, 8358.000000, 0.000000, 0.000000, 0.000000, 1.000000, 331.900024, 1557648612.561262, 4.000000, 4.000000, 4.000000, 4.000000, 4.000000
125.000000, 0.000000, 3978.974365, 4223.589844, 4042.051270, 4083.589600, 3979.487061, 450.000000, 8159.000000, 8353.000000, 0.000000, 0.000000, 0.000000, 1.000000, 339.799988, 1557648612.569162, 4.000000, 4.000000, 4.000000, 4.000000, 4.000000
126.000000, 0.000000, 3965.128174, 4209.230469, 4033.333252, 4090.256348, 3961.025635, 450.000000, 8152.000000, 8358.000000, 0.000000, 0.000000, 0.000000, 1.000000, 347.799988, 1557648612.577162, 4.000000, 4.000000, 4.000000, 4.000000, 4.000000
127.000000, 0.000000, 3956.923096, 4201.025391, 4027.692139, 4082.563965, 3964.615234, 16187.000000, 8161.000000, 8353.000000, 0.000000, 0.000000, 0.000000, 1.000000, 355.500000, 1557648612.584862, 4.000000, 4.000000, 4.000000, 4.000000, 4.000000
128.000000, 0.000000, 3957.435791, 4197.436035, 4021.025635, 4072.820313, 3970.769043, 500.000000, 8158.000000, 8353.000000, 0.000000, 0.000000, 0.000000, 1.000000, 363.299988, 1557648612.592662, 4.000000, 4.000000, 4.000000, 4.000000, 4.000000
0.000000, 0.000000, 3958.461426, 4194.358887, 4016.923096, 4076.410156, 3972.820313, 500.000000, 8156.000000, 8355.000000, 0.000000, 0.000000, 0.000000, 1.000000, 371.000000, 1557648612.600362, 4.000000, 4.000000, 4.000000, 4.000000, 4.000000
1.000000, 0.000000, 3955.384521, 4185.127930, 4006.666504, 4090.256348, 3981.538330, 500.000000, 8147.000000, 8353.000000, 0.000000, 0.000000, 0.000000, 1.000000, 379.000000, 1557648612.608362, 4.000000, 4.000000, 4.000000, 4.000000, 4.000000
2.000000, 0.000000, 3958.974365, 4183.076660, 3992.820313, 4094.871582, 3986.153809, 240.000000, 8155.000000, 8348.000000, 0.000000, 0.000000, 0.000000, 1.000000, 386.900024, 1557648612.616262, 2.000000, 4.000000, 4.000000, 4.000000, 4.000000
3.000000, 0.000000, 3973.333252, 4197.436035, 4001.538330, 4090.256348, 3992.307617, 500.000000, 8156.000000, 8350.000000, 0.000000, 0.000000, 0.000000, 1.000000, 394.799988, 1557648612.624162, 2.000000, 4.000000, 4.000000, 4.000000, 4.000000
4.000000, 0.000000, 3980.000000, 4200.000000, 4020.512695, 4091.281982, 4010.769043, 16120.000000, 8148.000000, 8361.000000, 0.000000, 0.000000, 0.000000, 1.000000, 402.799988, 1557648612.632162, 2.000000, 4.000000, 4.000000, 4.000000, 4.000000
5.000000, 0.000000, 3975.897217, 4187.692383, 4010.256348, 4089.743408, 4029.230713, 500.000000, 8145.000000, 8360.000000, 0.000000, 0.000000, 0.000000, 1.000000, 410.700012, 1557648612.640062, 2.000000, 4.000000, 4.000000, 4.000000, 4.000000
6.000000, 0.000000, 3973.845947, 4186.153809, 3996.410156, 4081.025635, 4033.845947, 16070.000000, 8149.000000, 8349.000000, 0.000000, 0.000000, 0.000000, 1.000000, 418.700012, 1557648612.648062, 2.000000, 4.000000, 4.000000, 4.000000, 4.000000
7.000000, 0.000000, 3971.281982, 4186.153809, 4002.051270, 4079.487061, 4029.230713, 500.000000, 8147.000000, 8356.000000, 0.000000, 0.000000, 0.000000, 1.000000, 426.400024, 1557648612.655762, 2.000000, 4.000000, 4.000000, 4.000000, 4.000000
8.000000, 0.000000, 3971.794678, 4174.871582, 4005.128174, 4080.000000, 4023.076904, 500.000000, 8143.000000, 8362.000000, 0.000000, 0.000000, 0.000000, 1.000000, 434.200012, 1557648612.663562, 2.000000, 4.000000, 4.000000, 4.000000, 4.000000
9.000000, 0.000000, 3981.025635, 4177.948730, 4012.307617, 4079.487061, 4034.358887, 16110.000000, 8143.000000, 8356.000000, 0.000000, 0.000000, 0.000000, 1.000000, 442.100000, 1557648612.671462, 2.000000, 4.000000, 4.000000, 4.000000, 4.000000
10.000000, 0.000000, 3991.281982, 4194.871582, 4024.102539, 4082.051270, 4060.000000, 500.000000, 8147.000000, 8359.000000, 0.000000, 0.000000, 0.000000, 1.000000, 450.000000, 1557648612.679362, 2.000000, 4.000000, 4.000000, 4.000000, 4.000000
11.000000, 0.000000, 4000.512695, 4209.230469, 4029.743408, 4087.179443, 4072.820313, 16190.000000, 8151.000000, 8359.000000, 0.000000, 0.000000, 0.000000, 1.000000, 458.000000, 1557648612.687362, 2.000000, 4.000000, 4.000000, 4.000000, 4.000000
12.000000, 0.000000, 4009.230713, 4214.358887, 4038.974365, 4096.922852, 4077.435791, 500.000000, 8156.000000, 8356.000000, 0.000000, 0.000000, 0.000000, 1.000000, 465.900000, 1557648612.695262, 2.000000, 4.000000, 4.000000, 4.000000, 4.000000
13.000000, 0.000000, 4012.307617, 4202.051270, 4041.538330, 4094.871582, 4090.769043, 500.000000, 8150.000000, 8358.000000, 0.000000, 0.000000, 0.000000, 1.000000, 473.900002, 1557648612.703262, 2.000000, 4.000000, 4.000000, 4.000000, 4.000000
14.000000, 0.000000, 4015.897217, 4191.281738, 4035.384521, 4090.256348, 4103.589844, 450.000000, 8147.000000, 8366.000000, 0.000000, 0.000000, 0.000000, 1.000000, 481.799999, 1557648612.711162, 2.000000, 4.000000, 4.000000, 4.000000, 4.000000
15.000000, 0.000000, 4024.102539, 4197.948730, 4047.692139, 4098.461426, 4105.641113, 16190.000000, 8152.000000, 8353.000000, 0.000000, 0.000000, 0.000000, 1.000000, 489.599998, 1557648612.718962, 2.000000, 4.000000, 4.000000, 4.000000, 4.000000
16.000000, 0.000000, 4033.845947, 4209.230469, 4071.794678, 4097.436035, 4119.487305, 0.000000, 8152.000000, 8352.000000, 0.000000, 0.000000, 0.000000, 1.000000, 497.299999, 1557648612.726662, 2.000000, 4.000000, 4.000000, 4.000000, 4.000000
17.000000, 0.000000, 4041.538330, 4214.358887, 4081.538330, 4090.256348, 4150.769043, 0.000000, 8149.000000, 8361.000000, 0.000000, 0.000000, 0.000000, 1.000000, 505.099998, 1557648612.734462, 2.000000, 4.000000, 4.000000, 4.000000, 4.000000
18.000000, 0.000000, 4044.615234, 4216.410156, 4077.948730, 4095.384521, 4166.666504, 0.000000, 8151.000000, 8357.000000, 0.000000, 0.000000, 0.000000, 1.000000, 513.000000, 1557648612.742362, 2.000000, 4.000000, 4.000000, 4.000000, 4.000000
19.000000, 0.000000, 4044.102539, 4221.538574, 4072.820313, 4103.076660, 4161.025391, 0.000000, 8148.000000, 8348.000000, 0.000000, 0.000000, 0.000000, 1.000000, 520.900002, 1557648612.750262, 2.000000, 4.000000, 4.000000, 4.000000, 4.000000
20.000000, 0.000000, 4037.948730, 4212.820313, 4056.923096, 4096.410156, 4152.820313, 0.000000, 8148.000000, 8346.000000, 0.000000, 0.000000, 0.000000, 1.000000, 528.900002, 1557648612.758262, 2.000000, 4.000000, 4.000000, 4.000000, 4.000000
21.000000, 0.000000, 4033.845947, 4188.205078, 4032.307617, 4087.692139, 4150.769043, 0.000000, 8147.000000, 8356.000000, 0.000000, 0.000000, 0.000000, 1.000000, 536.800003, 1557648612.766162, 2.000000, 4.000000, 4.000000, 4.000000, 4.000000
22.000000, 0.000000, 4040.512695, 4183.076660, 4021.538330, 4088.717773, 4162.051270, 0.000000, 8148.000000, 8350.000000, 0.000000, 0.000000, 0.000000, 1.000000, 544.800003, 1557648612.774162, 2.000000, 4.000000, 4.000000, 4.000000, 4.000000
23.000000, 0.000000, 4055.384521, 4200.000000, 4021.025635, 4088.717773, 4180.512695, 0.000000, 8147.000000, 8341.000000, 0.000000, 0.000000, 0.000000, 1.000000, 552.699997, 1557648612.782062, 2.000000, 4.000000, 4.000000, 4.000000, 4.000000
24.000000, 0.000000, 4066.666504, 4205.641113, 4019.487061, 4095.384521, 4184.615234, 0.000000, 8142.000000, 8344.000000, 0.000000, 0.000000, 0.000000, 1.000000, 560.500000, 1557648612.789862, 2.000000, 4.000000, 4.000000, 4.000000, 4.000000
25.000000, 0.000000, 4064.102539, 4198.461426, 4024.102539, 4101.025391, 4183.076660, 0.000000, 8131.000000, 8341.000000, 0.000000, 0.000000, 0.000000, 1.000000, 568.199997, 1557648612.797562, 2.000000, 4.000000, 4.000000, 4.000000, 4.000000
26.000000, 0.000000, 4049.743408, 4192.307617, 4026.153809, 4087.179443, 4196.922852, 0.000000, 8138.000000, 8348.000000, 0.000000, 0.000000, 0.000000, 1.000000, 575.899994, 1557648612.805262, 2.000000, 4.000000, 4.000000, 4.000000, 4.000000
27.000000, 0.000000, 4045.640869, 4187.179199, 4017.435791, 4077.948730, 4202.563965, 0.000000, 8133.000000, 8343.000000, 0.000000, 0.000000, 0.000000, 1.000000, 583.899994, 1557648612.813262, 2.000000, 4.000000, 4.000000, 4.000000, 4.000000
28.000000, 0.000000, 4054.871582, 4183.589844, 4010.769043, 4086.666504, 4185.127930, 0.000000, 8136.000000, 8339.000000, 0.000000, 0.000000, 0.000000, 1.000000, 591.800003, 1557648612.821162, 2.000000, 4.000000, 4.000000, 4.000000, 4.000000
29.000000, 0.000000, 4056.410156, 4186.153809, 4013.333252, 4095.384521, 4181.538574, 0.000000, 8139.000000, 8341.000000, 0.000000, 0.000000, 0.000000, 1.000000, 599.800003, 1557648612.829162, 2.000000, 4.000000, 4.000000, 4.000000, 4.000000
30.000000, 0.000000, 4062.051270, 4201.538574, 4020.512695, 4095.384521, 4204.102539, 0.000000, 8136.000000, 8349.000000, 0.000000, 0.000000, 0.000000, 1.000000, 607.699997, 1557648612.837062, 2.000000, 4.000000, 4.000000, 4.000000, 4.000000
31.000000, 0.000000, 4067.692139, 4204.102539, 4013.845947, 4089.230713, 4213.333008, 0.000000, 8136.000000, 8348.000000, 0.000000, 0.000000, 0.000000, 1.000000, 615.699997, 1557648612.845062, 2.000000, 4.000000, 4.000000, 4.000000, 4.000000
32.000000, 0.000000, 4055.384521, 4185.127930, 3993.333252, 4083.589600, 4207.179199, 0.000000, 8137.000000, 8338.000000, 0.000000, 0.000000, 0.000000, 1.000000, 623.399994, 1557648612.852762, 2.000000, 4.000000, 4.000000, 4.000000, 4.000000
33.000000, 0.000000, 4061.538330, 4186.666504, 3992.820313, 4083.076904, 4222.563965, 0.000000, 8141.000000, 8344.000000, 0.000000, 0.000000, 0.000000, 1.000000, 631.199997, 1557648612.860562, 2.000000, 4.000000, 4.000000, 4.000000, 4.000000
34.000000, 0.000000, 4088.205078, 4204.615234, 4021.025635, 4091.281982, 4247.179199, 0.000000, 8141.000000, 8357.000000, 0.000000, 0.000000, 0.000000, 1.000000, 639.100006, 1557648612.868462, 2.000000, 4.000000, 4.000000, 4.000000, 4.000000
35.000000, 0.000000, 4091.281982, 4204.615234, 4039.487061, 4102.563965, 4251.794922, 0.000000, 8147.000000, 8362.000000, 0.000000, 0.000000, 0.000000, 1.000000, 647.000000, 1557648612.876362, 2.000000, 4.000000, 4.000000, 4.000000, 4.000000
36.000000, 0.000000, 4080.000000, 4196.922852, 4031.281982, 4097.436035, 4248.717773, 0.000000, 8151.000000, 8353.000000, 0.000000, 0.000000, 0.000000, 1.000000, 655.000000, 1557648612.884362, 2.000000, 4.000000, 4.000000, 4.000000, 4.000000
37.000000, 0.000000, 4074.358887, 4189.230469, 4016.410156, 4086.666504, 4247.692383, 0.000000, 8158.000000, 8359.000000, 0.000000, 0.000000, 0.000000, 1.000000, 662.899994, 1557648612.892262, 2.000000, 4.000000, 4.000000, 4.000000, 4.000000
38.000000, 0.000000, 4062.051270, 4183.076660, 3999.487061, 4088.205078, 4244.615234, 0.000000, 8158.000000, 8357.000000, 0.000000, 0.000000, 0.000000, 1.000000, 670.899994, 1557648612.900262, 2.000000, 4.000000, 4.000000, 4.000000, 4.000000
39.000000, 0.000000, 4058.974365, 4185.641113, 3994.358887, 4095.897217, 4244.615234, 0.000000, 8166.000000, 8356.000000, 0.000000, 0.000000, 0.000000, 1.000000, 678.800003, 1557648612.908162, 2.000000, 4.000000, 4.000000, 4.000000, 4.000000
40.000000, 0.000000, 4079.487061, 4196.922852, 4021.025635, 4098.461426, 4266.153809, 0.000000, 8167.000000, 8362.000000, 0.000000, 0.000000, 0.000000, 1.000000, 686.600006, 1557648612.915962, 2.000000, 4.000000, 4.000000, 4.000000, 4.000000
41.000000, 0.000000, 4102.563965, 4214.358887, 4042.563965, 4100.000000, 4296.410156, 0.000000, 8173.000000, 8358.000000, 0.000000, 0.000000, 0.000000, 1.000000, 694.300003, 1557648612.923662, 2.000000, 4.000000, 4.000000, 4.000000, 4.000000
42.000000, 0.000000, 4104.615234, 4217.436035, 4032.820313, 4100.000000, 4303.589844, 0.000000, 8180.000000, 8357.000000, 0.000000, 0.000000, 0.000000, 1.000000, 702.100006, 1557648612.931462, 2.000000, 4.000000, 4.000000, 4.000000, 4.000000
43.000000, 0.000000, 4095.897217, 4208.205078, 4014.871582, 4097.948730, 4303.076660, 0.000000, 8179.000000, 8365.000000, 0.000000, 0.000000, 0.000000, 1.000000, 710.000000, 1557648612.939362, 2.000000, 4.000000, 4.000000, 4.000000, 4.000000
44.000000, 0.000000, 4107.179199, 4214.358887, 4015.384521, 4107.692383, 4327.179199, 0.000000, 8183.000000, 8362.000000, 0.000000, 0.000000, 0.000000, 1.000000, 717.899994, 1557648612.947262, 2.000000, 4.000000, 4.000000, 4.000000, 4.000000
45.000000, 0.000000, 4125.641113, 4225.127930, 4023.076904, 4109.743652, 4345.127930, 0.000000, 8184.000000, 8354.000000, 0.000000, 0.000000, 0.000000, 1.000000, 725.899994, 1557648612.955262, 2.000000, 4.000000, 4.000000, 4.000000, 4.000000
46.000000, 0.000000, 4122.051270, 4215.897461, 4017.435791, 4087.692139, 4325.127930, 0.000000, 8175.000000, 8356.000000, 0.000000, 0.000000, 0.000000, 1.000000, 733.799988, 1557648612.963162, 2.000000, 4.000000, 4.000000, 4.000000, 4.000000
47.000000, 0.000000, 4118.461426, 4207.179199, 4018.974365, 4089.230713, 4323.589844, 0.000000, 8170.000000, 8363.000000, 0.000000, 0.000000, 0.000000, 1.000000, 741.799988, 1557648612.971162, 2.000000, 4.000000, 4.000000, 4.000000, 4.000000
48.000000, 0.000000, 4134.358887, 4217.436035, 4029.743408, 4109.230469, 4360.000000, 0.000000, 8171.000000, 8359.000000, 0.000000, 0.000000, 0.000000, 1.000000, 749.700012, 1557648612.979062, 2.000000, 4.000000, 4.000000, 4.000000, 4.000000
49.000000, 0.000000, 4149.230469, 4227.692383, 4020.512695, 4098.974121, 4377.435547, 0.000000, 8172.000000, 8350.000000, 0.000000, 0.000000, 0.000000, 1.000000, 757.500000, 1557648612.986862, 2.000000, 4.000000, 4.000000, 4.000000, 4.000000
50.000000, 0.000000, 4154.358887, 4225.641113, 4002.051270, 4096.410156, 4374.358887, 0.000000, 8161.000000, 8344.000000, 0.000000, 0.000000, 0.000000, 1.000000, 765.200012, 1557648612.994562, 2.000000, 4.000000, 4.000000, 4.000000, 4.000000
51.000000, 0.000000, 4151.281738, 4218.461426, 4003.076904, 4115.384277, 4383.589844, 0.000000, 8159.000000, 8348.000000, 0.000000, 0.000000, 0.000000, 1.000000, 773.000000, 1557648613.002362, 2.000000, 4.000000, 4.000000, 4.000000, 4.000000
52.000000, 0.000000, 4136.410156, 4214.871582, 4004.102539, 4105.641113, 4383.589844, 0.000000, 8149.000000, 8350.000000, 0.000000, 0.000000, 0.000000, 1.000000, 781.000000, 1557648613.010362, 2.000000, 4.000000, 4.000000, 4.000000, 4.000000
53.000000, 0.000000, 4132.820313, 4215.384277, 4003.589600, 4087.692139, 4375.384277, 0.000000, 8147.000000, 8354.000000, 0.000000, 0.000000, 0.000000, 1.000000, 788.899994, 1557648613.018262, 2.000000, 4.000000, 4.000000, 4.000000, 4.000000
54.000000, 0.000000, 4142.563965, 4215.384277, 4017.435791, 4097.948730, 4383.076660, 0.000000, 8146.000000, 8350.000000, 0.000000, 0.000000, 0.000000, 1.000000, 796.899994, 1557648613.026262, 2.000000, 4.000000, 4.000000, 4.000000, 4.000000
55.000000, 0.000000, 4138.461426, 4214.871582, 4024.102539, 4112.307617, 4392.307617, 0.000000, 8138.000000, 8343.000000, 0.000000, 0.000000, 0.000000, 1.000000, 804.799988, 1557648613.034162, 2.000000, 4.000000, 4.000000, 4.000000, 4.000000
56.000000, 0.000000, 4137.948730, 4221.538574, 4029.230713, 4113.846191, 4407.179199, 0.000000, 8140.000000, 8347.000000, 0.000000, 0.000000, 0.000000, 1.000000, 812.799988, 1557648613.042162, 2.000000, 4.000000, 4.000000, 4.000000, 4.000000
57.000000, 0.000000, 4160.000000, 4228.205078, 4038.974365, 4105.127930, 4422.563965, 0.000000, 8132.000000, 8345.000000, 0.000000, 0.000000, 0.000000, 1.000000, 820.500000, 1557648613.049862, 2.000000, 4.000000, 4.000000, 4.000000, 4.000000
58.000000, 0.000000, 4185.127930, 4228.205078, 4045.128174, 4095.384521, 4433.846191, 0.000000, 8136.000000, 8339.000000, 0.000000, 0.000000, 0.000000, 1.000000, 828.299988, 1557648613.057662, 2.000000, 4.000000, 4.000000, 4.000000, 4.000000
59.000000, 0.000000, 4200.000000, 4231.281738, 4063.589600, 4103.589844, 4457.435547, 0.000000, 8131.000000, 8336.000000, 0.000000, 0.000000, 0.000000, 1.000000, 836.100006, 1557648613.065462, 2.000000, 4.000000, 4.000000, 4.000000, 4.000000
60.000000, 0.000000, 4205.641113, 4235.897461, 4072.820313, 4114.871582, 4475.384277, 0.000000, 8126.000000, 8350.000000, 0.000000, 0.000000, 0.000000, 1.000000, 844.000000, 1557648613.073362, 2.000000, 4.000000, 4.000000, 4.000000, 4.000000
61.000000, 0.000000, 4203.589844, 4229.230469, 4046.666504, 4112.820313, 4468.717773, 0.000000, 8133.000000, 8345.000000, 0.000000, 0.000000, 0.000000, 1.000000, 852.000000, 1557648613.081362, 2.000000, 4.000000, 4.000000, 4.000000, 4.000000
62.000000, 0.000000, 4200.512695, 4223.589844, 4024.102539, 4111.281738, 4462.051270, 0.000000, 8127.000000, 8333.000000, 0.000000, 0.000000, 0.000000, 1.000000, 859.899994, 1557648613.089262, 2.000000, 4.000000, 4.000000, 4.000000, 4.000000
63.000000, 0.000000, 4203.076660, 4228.205078, 4035.897217, 4113.333008, 4469.743652, 0.000000, 8139.000000, 8333.000000, 0.000000, 0.000000, 0.000000, 1.000000, 867.899994, 1557648613.097262, 2.000000, 4.000000, 4.000000, 4.000000, 4.000000
64.000000, 0.000000, 4208.205078, 4230.256348, 4049.743408, 4107.179199, 4480.000000, 500.000000, 8142.000000, 8344.000000, 0.000000, 0.000000, 0.000000, 1.000000, 875.799988, 1557648613.105162, 2.000000, 4.000000, 4.000000, 4.000000, 4.000000
65.000000, 0.000000, 4209.743652, 4228.717773, 4046.153809, 4106.153809, 4487.692383, 500.000000, 8140.000000, 8347.000000, 0.000000, 0.000000, 0.000000, 1.000000, 883.600006, 1557648613.112962, 2.000000, 4.000000, 4.000000, 4.000000, 4.000000
66.000000, 0.000000, 4208.205078, 4222.563965, 4030.769043, 4109.743652, 4490.256348, 16171.000000, 8137.000000, 8345.000000, 0.000000, 0.000000, 0.000000, 1.000000, 891.299988, 1557648613.120662, 4.000000, 4.000000, 4.000000, 4.000000, 4.000000
67.000000, 0.000000, 4207.179199, 4219.487305, 4017.948730, 4107.692383, 4496.410156, 500.000000, 8139.000000, 8346.000000, 0.000000, 0.000000, 0.000000, 1.000000, 899.000000, 1557648613.128362, 4.000000, 4.000000, 4.000000, 4.000000, 4.000000
68.000000, 0.000000, 4202.051270, 4214.358887, 4020.000000, 4108.205078, 4508.205078, 16138.000000, 8146.000000, 8349.000000, 0.000000, 0.000000, 0.000000, 1.000000, 907.000000, 1557648613.136362, 4.000000, 4.000000, 4.000000, 4.000000, 4.000000
69.000000, 0.000000, 4196.922852, 4202.051270, 4020.512695, 4110.769043, 4510.256348, 500.000000, 8141.000000, 8356.000000, 0.000000, 0.000000, 0.000000, 1.000000, 914.899994, 1557648613.144262, 4.000000, 4.000000, 4.000000, 4.000000, 4.000000
70.000000, 0.000000, 4198.461426, 4202.051270, 4024.615234, 4111.281738, 4511.281738, 16081.000000, 8148.000000, 8358.000000, 0.000000, 0.000000, 0.000000, 1.000000, 922.899994, 1557648613.152262, 4.000000, 4.000000, 4.000000, 4.000000, 4.000000
71.000000, 0.000000, 4198.974121, 4215.384277, 4044.615234, 4106.153809, 4515.384277, 500.000000, 8143.000000, 8352.000000, 0.000000, 0.000000, 0.000000, 1.000000, 930.799988, 1557648613.160162, 4.000000, 4.000000, 4.000000, 4.000000, 4.000000
72.000000, 0.000000, 4211.281738, 4219.487305, 4060.000000, 4105.127930, 4524.102539, 500.000000, 8140.000000, 8354.000000, 0.000000, 0.000000, 0.000000, 1.000000, 938.799988, 1557648613.168162, 4.000000, 4.000000, 4.000000, 4.000000, 4.000000
73.000000, 0.000000, 4235.897461, 4221.025391, 4064.615234, 4109.230469, 4536.922852, 16124.000000, 8140.000000, 8362.000000, 0.000000, 0.000000, 0.000000, 1.000000, 946.700012, 1557648613.176062, 4.000000, 4.000000, 4.000000, 4.000000, 4.000000
74.000000, 0.000000, 4243.076660, 4235.384277, 4070.769043, 4105.127930, 4540.000000, 500.000000, 8132.000000, 8359.000000, 0.000000, 0.000000, 0.000000, 1.000000, 954.500000, 1557648613.183862, 4.000000, 4.000000, 4.000000, 4.000000, 4.000000
75.000000, 0.000000, 4239.487305, 4240.512695, 4077.948730, 4108.717773, 4542.051270, 16180.000000, 8137.000000, 8353.000000, 0.000000, 0.000000, 0.000000, 1.000000, 962.200012, 1557648613.191562, 4.000000, 4.000000, 4.000000, 4.000000, 4.000000
76.000000, 0.000000, 4237.948730, 4229.743652, 4073.845947, 4116.410156, 4549.230469, 500.000000, 8128.000000, 8348.000000, 0.000000, 0.000000, 0.000000, 1.000000, 970.000000, 1557648613.199362, 4.000000, 4.000000, 4.000000, 4.000000, 4.000000
77.000000, 0.000000, 4232.820313, 4224.615234, 4062.563965, 4114.358887, 4553.846191, 500.000000, 8128.000000, 8356.000000, 0.000000, 0.000000, 0.000000, 1.000000, 978.000000, 1557648613.207362, 4.000000, 4.000000, 4.000000, 4.000000, 4.000000
78.000000, 0.000000, 4232.307617, 4229.230469, 4057.948730, 4107.179199, 4565.127930, 450.000000, 8132.000000, 8358.000000, 0.000000, 0.000000, 0.000000, 1.000000, 985.900024, 1557648613.215262, 4.000000, 4.000000, 4.000000, 4.000000, 4.000000
79.000000, 0.000000, 4232.820313, 4240.512695, 4057.948730, 4100.512695, 4575.897461, 16180.000000, 8133.000000, 8362.000000, 0.000000, 0.000000, 0.000000, 1.000000, 993.900024, 1557648613.223262, 4.000000, 4.000000, 4.000000, 4.000000, 4.000000
80.000000, 0.000000, 4217.948730, 4246.153809, 4054.358887, 4103.589844, 4561.025391, 450.000000, 8123.000000, 8364.000000, 0.000000, 0.000000, 0.000000, 2.000000, 1.799988, 1557648613.231162, 4.000000, 4.000000, 4.000000, 4.000000, 4.000000
81.000000, 0.000000, 4208.717773, 4234.871582, 4048.717773, 4107.179199, 4545.641113, 450.000000, 8127.000000, 8357.000000, 0.000000, 0.000000, 0.000000, 2.000000, 9.799988, 1557648613.239162, 4.000000, 4.000000, 4.000000, 4.000000, 4.000000
82.000000, 0.000000, 4223.589844, 4226.153809, 4048.717773, 4101.538574, 4558.461426, 450.000000, 8129.000000, 8356.000000, 0.000000, 0.000000, 0.000000, 2.000000, 17.700012, 1557648613.247062, 4.000000, 4.000000, 4.000000, 4.000000, 4.000000
83.000000, 0.000000, 4238.461426, 4242.051270, 4049.743408, 4099.487305, 4573.333008, 16180.000000, 8129.000000, 8367.000000, 0.000000, 0.000000, 0.000000, 2.000000, 25.500000, 1557648613.254862, 4.000000, 4.000000, 4.000000, 4.000000, 4.000000
84.000000, 0.000000, 4232.820313, 4249.743652, 4043.076904, 4104.102539, 4569.743652, 450.000000, 8129.000000, 8359.000000, 0.000000, 0.000000, 0.000000, 2.000000, 33.200012, 1557648613.262562, 4.000000, 4.000000, 4.000000, 4.000000, 4.000000
85.000000, 0.000000, 4226.666504, 4234.358887, 4035.897217, 4108.717773, 4572.307617, 450.000000, 8133.000000, 8363.000000, 0.000000, 0.000000, 0.000000, 2.000000, 40.900024, 1557648613.270262, 4.000000, 4.000000, 4.000000, 4.000000, 4.000000
86.000000, 0.000000, 4239.487305, 4237.948730, 4037.948730, 4109.743652, 4594.871582, 450.000000, 8132.000000, 8366.000000, 0.000000, 0.000000, 0.000000, 2.000000, 48.900024, 1557648613.278262, 4.000000, 4.000000, 4.000000, 4.000000, 4.000000
87.000000, 0.000000, 4242.563965, 4242.563965, 4041.025635, 4103.589844, 4603.589844, 16180.000000, 8139.000000, 8367.000000, 0.000000, 0.000000, 0.000000, 2.000000, 56.799988, 1557648613.286162, 4.000000, 4.000000, 4.000000, 4.000000, 4.000000
88.000000, 0.000000, 4230.256348, 4221.025391, 4030.769043, 4102.051270, 4592.820313, 450.000000, 8143.000000, 8355.000000, 0.000000, 0.000000, 0.000000, 2.000000, 64.799988, 1557648613.294162, 4.000000, 4.000000, 4.000000, 4.000000, 4.000000
89.000000, 0.000000, 4234.871582, 4213.333008, 4018.461426, 4106.666504, 4595.897461, 450.000000, 8149.000000, 8355.000000, 0.000000, 0.000000, 0.000000, 2.000000, 72.700012, 1557648613.302062, 4.000000, 4.000000, 4.000000, 4.000000, 4.000000
90.000000, 0.000000, 4249.230469, 4232.307617, 4024.102539, 4102.563965, 4602.563965, 450.000000, 8143.000000, 8369.000000, 0.000000, 0.000000, 0.000000, 2.000000, 80.500000, 1557648613.309862, 4.000000, 4.000000, 4.000000, 4.000000, 4.000000
91.000000, 0.000000, 4250.769043, 4243.589844, 4040.512695, 4096.922852, 4599.487305, 16180.000000, 8152.000000, 8361.000000, 0.000000, 0.000000, 0.000000, 2.000000, 88.200012, 1557648613.317562, 4.000000, 4.000000, 4.000000, 4.000000, 4.000000
92.000000, 0.000000, 4248.717773, 4236.410156, 4043.589600, 4101.025391, 4611.281738, 450.000000, 8152.000000, 8350.000000, 0.000000, 0.000000, 0.000000, 2.000000, 96.099976, 1557648613.325462, 4.000000, 4.000000, 4.000000, 4.000000, 4.000000
93.000000, 0.000000, 4247.692383, 4227.179199, 4025.128174, 4100.000000, 4626.153809, 450.000000, 8149.000000, 8355.000000, 0.000000, 0.000000, 0.000000, 2.000000, 104.000000, 1557648613.333362, 4.000000, 4.000000, 4.000000, 4.000000, 4.000000
94.000000, 0.000000, 4246.666504, 4225.127930, 4000.512695, 4093.333252, 4617.948730, 450.000000, 8153.000000, 8354.000000, 0.000000, 0.000000, 0.000000, 2.000000, 111.900024, 1557648613.341262, 4.000000, 4.000000, 4.000000, 4.000000, 4.000000
95.000000, 0.000000, 4252.820313, 4229.743652, 3997.435791, 4101.025391, 4611.281738, 16180.000000, 8155.000000, 8355.000000, 0.000000, 0.000000, 0.000000, 2.000000, 119.900024, 1557648613.349262, 4.000000, 4.000000, 4.000000, 4.000000, 4.000000
96.000000, 0.000000, 4262.563965, 4233.333008, 4014.871582, 4112.307617, 4625.127930, 450.000000, 8149.000000, 8356.000000, 0.000000, 0.000000, 0.000000, 2.000000, 127.799988, 1557648613.357162, 4.000000, 4.000000, 4.000000, 4.000000, 4.000000
97.000000, 0.000000, 4260.512695, 4233.333008, 4019.487061, 4102.051270, 4635.384277, 450.000000, 8149.000000, 8351.000000, 0.000000, 0.000000, 0.000000, 2.000000, 135.799988, 1557648613.365162, 4.000000, 4.000000, 4.000000, 4.000000, 4.000000
98.000000, 0.000000, 4252.307617, 4234.871582, 4016.923096, 4094.358887, 4637.435547, 450.000000, 8152.000000, 8342.000000, 0.000000, 0.000000, 0.000000, 2.000000, 143.500000, 1557648613.372862, 4.000000, 4.000000, 4.000000, 4.000000, 4.000000
99.000000, 0.000000, 4249.743652, 4227.179199, 4026.666504, 4108.205078, 4640.000000, 16180.000000, 8149.000000, 8353.000000, 0.000000, 0.000000, 0.000000, 2.000000, 151.299988, 1557648613.380662, 4.000000, 4.000000, 4.000000, 4.000000, 4.000000
100.000000, 0.000000, 4252.307617, 4216.410156, 4033.333252, 4113.333008, 4643.589844, 450.000000, 8148.000000, 8353.000000, 0.000000, 0.000000, 0.000000, 2.000000, 159.099976, 1557648613.388462, 4.000000, 4.000000, 4.000000, 4.000000, 4.000000
101.000000, 0.000000, 4255.897461, 4223.589844, 4040.000000, 4101.538574, 4648.205078, 450.000000, 8153.000000, 8345.000000, 0.000000, 0.000000, 0.000000, 2.000000, 167.000000, 1557648613.396362, 4.000000, 4.000000, 4.000000, 4.000000, 4.000000
102.000000, 0.000000, 4266.666504, 4240.000000, 4048.205078, 4098.461426, 4653.333008, 450.000000, 8149.000000, 8348.000000, 0.000000, 0.000000, 0.000000, 2.000000, 175.000000, 1557648613.404362, 4.000000, 4.000000, 4.000000, 4.000000, 4.000000
103.000000, 0.000000, 4286.153809, 4250.256348, 4049.230713, 4116.922852, 4667.692383, 16180.000000, 8150.000000, 8357.000000, 0.000000, 0.000000, 0.000000, 2.000000, 182.900024, 1557648613.412262, 4.000000, 4.000000, 4.000000, 4.000000, 4.000000
104.000000, 0.000000, 4297.948730, 4243.589844, 4037.435791, 4125.127930, 4686.666504, 450.000000, 8145.000000, 8357.000000, 0.000000, 0.000000, 0.000000, 2.000000, 190.900024, 1557648613.420262, 4.000000, 4.000000, 4.000000, 4.000000, 4.000000
105.000000, 0.000000, 4294.358887, 4232.307617, 4018.974365, 4105.641113, 4688.205078, 450.000000, 8141.000000, 8350.000000, 0.000000, 0.000000, 0.000000, 2.000000, 198.799988, 1557648613.428162, 4.000000, 4.000000, 4.000000, 4.000000, 4.000000
106.000000, 0.000000, 4295.384277, 4242.563965, 4018.974365, 4099.487305, 4689.230469, 450.000000, 8141.000000, 8349.000000, 0.000000, 0.000000, 0.000000, 2.000000, 206.799988, 1557648613.436162, 4.000000, 4.000000, 4.000000, 4.000000, 4.000000
107.000000, 0.000000, 4306.153809, 4258.461426, 4045.640869, 4113.333008, 4713.333008, 16180.000000, 8147.000000, 8355.000000, 0.000000, 0.000000, 0.000000, 2.000000, 214.500000, 1557648613.443862, 4.000000, 4.000000, 4.000000, 4.000000, 4.000000
108.000000, 0.000000, 4314.871582, 4252.820313, 4066.666504, 4126.153809, 4733.333008, 450.000000, 8143.000000, 8355.000000, 0.000000, 0.000000, 0.000000, 2.000000, 222.299988, 1557648613.451662, 4.000000, 4.000000, 4.000000, 4.000000, 4.000000
109.000000, 0.000000, 4321.538574, 4247.179199, 4071.794678, 4128.205078, 4738.974121, 450.000000, 8145.000000, 8359.000000, 0.000000, 0.000000, 0.000000, 2.000000, 230.000000, 1557648613.459362, 4.000000, 4.000000, 4.000000, 4.000000, 4.000000
110.000000, 0.000000, 4330.256348, 4261.025391, 4073.845947, 4120.512695, 4745.641113, 450.000000, 8144.000000, 8367.000000, 0.000000, 0.000000, 0.000000, 2.000000, 237.900024, 1557648613.467262, 4.000000, 4.000000, 4.000000, 4.000000, 4.000000
111.000000, 0.000000, 4327.692383, 4267.179199, 4068.205078, 4114.871582, 4743.589844, 16180.000000, 8145.000000, 8361.000000, 0.000000, 0.000000, 0.000000, 2.000000, 245.900024, 1557648613.475262, 4.000000, 4.000000, 4.000000, 4.000000, 4.000000
112.000000, 0.000000, 4318.461426, 4261.538574, 4061.025635, 4116.922852, 4734.358887, 450.000000, 8146.000000, 8356.000000, 0.000000, 0.000000, 0.000000, 2.000000, 253.799988, 1557648613.483162, 4.000000, 4.000000, 4.000000, 4.000000, 4.000000
113.000000, 0.000000, 4304.615234, 4245.127930, 4047.179443, 4122.051270, 4724.615234, 450.000000, 8146.000000, 8370.000000, 0.000000, 0.000000, 0.000000, 2.000000, 261.799988, 1557648613.491162, 4.000000, 4.000000, 4.000000, 4.000000, 4.000000
114.000000, 0.000000, 4303.076660, 4229.743652, 4023.076904, 4124.102539, 4729.230469, 450.000000, 8148.000000, 8356.000000, 0.000000, 0.000000, 0.000000, 2.000000, 269.700012, 1557648613.499062, 4.000000, 4.000000, 4.000000, 4.000000, 4.000000
115.000000, 0.000000, 4321.538574, 4240.512695, 4024.102539, 4127.692383, 4753.333008, 16180.000000, 8150.000000, 8357.000000, 0.000000, 0.000000, 0.000000, 2.000000, 277.500000, 1557648613.506862, 4.000000, 4.000000, 4.000000, 4.000000, 4.000000
116.000000, 0.000000, 4330.256348, 4248.717773, 4051.281982, 4125.641113, 4765.127930, 450.000000, 8148.000000, 8364.000000, 0.000000, 0.000000, 0.000000, 2.000000, 285.200012, 1557648613.514562, 4.000000, 4.000000, 4.000000, 4.000000, 4.000000
117.000000, 0.000000, 4333.846191, 4249.230469, 4070.769043, 4117.948730, 4770.769043, 450.000000, 8150.000000, 8364.000000, 0.000000, 0.000000, 0.000000, 2.000000, 293.099976, 1557648613.522462, 4.000000, 4.000000, 4.000000, 4.000000, 4.000000
118.000000, 0.000000, 4347.692383, 4267.692383, 4078.974365, 4124.102539, 4791.794922, 450.000000, 8153.000000, 8355.000000, 0.000000, 0.000000, 0.000000, 2.000000, 301.000000, 1557648613.530362, 4.000000, 4.000000, 4.000000, 4.000000, 4.000000
119.000000, 0.000000, 4353.846191, 4282.563965, 4077.435791, 4135.384277, 4790.769043, 16180.000000, 8154.000000, 8358.000000, 0.000000, 0.000000, 0.000000, 2.000000, 308.900024, 1557648613.538262, 4.000000, 4.000000, 4.000000, 4.000000, 4.000000
120.000000, 0.000000, 4346.666504, 4277.948730, 4070.769043, 4128.205078, 4768.717773, 450.000000, 8155.000000, 8361.000000, 0.000000, 0.000000, 0.000000, 2.000000, 316.900024, 1557648613.546262, 4.000000, 4.000000, 4.000000, 4.000000, 4.000000
121.000000, 0.000000, 4347.179199, 4274.871582, 4083.076904, 4126.153809, 4774.871582, 450.000000, 8156.000000, 8352.000000, 0.000000, 0.000000, 0.000000, 2.000000, 324.799988, 1557648613.554162, 4.000000, 4.000000, 4.000000, 4.000000, 4.000000
122.000000, 0.000000, 4346.153809, 4267.179199, 4097.436035, 4134.358887, 4788.717773, 450.000000, 8152.000000, 8354.000000, 0.000000, 0.000000, 0.000000, 2.000000, 332.799988, 1557648613.562162, 4.000000, 4.000000, 4.000000, 4.000000, 4.000000
123.000000, 0.000000, 4337.948730, 4255.384277, 4095.897217, 4130.769043, 4783.076660, 16180.000000, 8145.000000, 8354.000000, 0.000000, 0.000000, 0.000000, 2.000000, 340.700012, 1557648613.570062, 4.000000, 4.000000, 4.000000, 4.000000, 4.000000
124.000000, 0.000000, 4341.538574, 4260.512695, 4100.512695, 4123.589844, 4779.487305, 450.000000, 8149.000000, 8342.000000, 0.000000, 0.000000, 0.000000, 2.000000, 348.500000, 1557648613.577862, 4.000000, 4.000000, 4.000000, 4.000000, 4.000000
125.000000, 0.000000, 4350.769043, 4272.307617, 4103.076660, 4126.153809, 4782.051270, 450.000000, 8141.000000, 8343.000000, 0.000000, 0.000000, 0.000000, 2.000000, 356.200012, 1557648613.585562, 4.000000, 4.000000, 4.000000, 4.000000, 4.000000
126.000000, 0.000000, 4353.846191, 4260.000000, 4087.692139, 4131.281738, 4781.538574, 450.000000, 8134.000000, 8350.000000, 0.000000, 0.000000, 0.000000, 2.000000, 364.099976, 1557648613.593462, 4.000000, 4.000000, 4.000000, 4.000000, 4.000000
127.000000, 0.000000, 4341.025391, 4240.512695, 4073.845947, 4123.076660, 4780.000000, 16180.000000, 8129.000000, 8349.000000, 0.000000, 0.000000, 0.000000, 2.000000, 372.000000, 1557648613.601362, 4.000000, 4.000000, 4.000000, 4.000000, 4.000000
128.000000, 0.000000, 4333.333008, 4250.769043, 4073.845947, 4114.358887, 4785.641113, 500.000000, 8130.000000, 8341.000000, 0.000000, 0.000000, 0.000000, 2.000000, 379.900024, 1557648613.609262, 4.000000, 4.000000, 4.000000, 4.000000, 4.000000
0.000000, 0.000000, 4355.384277, 4263.076660, 4080.512695, 4120.512695, 4802.563965, 500.000000, 8123.000000, 8350.000000, 0.000000, 0.000000, 0.000000, 2.000000, 387.900024, 1557648613.617262, 4.000000, 4.000000, 4.000000, 4.000000, 4.000000
1.000000, 0.000000, 4365.127930, 4254.358887, 4094.871582, 4125.641113, 4800.512695, 500.000000, 8121.000000, 8351.000000, 0.000000, 0.000000, 0.000000, 2.000000, 395.799988, 1557648613.625162, 4.000000, 4.000000, 4.000000, 4.000000, 4.000000
2.000000, 0.000000, 4347.692383, 4246.666504, 4112.307617, 4124.615234, 4779.487305, 16193.000000, 8114.000000, 8342.000000, 0.000000, 0.000000, 0.000000, 2.000000, 403.799988, 1557648613.633162, 4.000000, 4.000000, 4.000000, 4.000000, 4.000000
3.000000, 0.000000, 4348.717773, 4252.307617, 4112.307617, 4126.666504, 4774.871582, 500.000000, 8119.000000, 8335.000000, 0.000000, 0.000000, 0.000000, 2.000000, 411.500000, 1557648613.640862, 4.000000, 4.000000, 4.000000, 4.000000, 4.000000
4.000000, 0.000000, 4369.230469, 4257.948730, 4101.538574, 4124.615234, 4780.000000, 16126.000000, 8122.000000, 8345.000000, 0.000000, 0.000000, 0.000000, 2.000000, 419.299988, 1557648613.648662, 4.000000, 4.000000, 4.000000, 4.000000, 4.000000
5.000000, 0.000000, 4367.179199, 4258.461426, 4100.512695, 4116.922852, 4785.641113, 500.000000, 8120.000000, 8341.000000, 0.000000, 0.000000, 0.000000, 2.000000, 427.000000, 1557648613.656362, 4.000000, 4.000000, 4.000000, 4.000000, 4.000000
6.000000, 0.000000, 4364.102539, 4252.307617, 4092.820313, 4122.051270, 4799.487305, 16104.000000, 8122.000000, 8340.000000, 0.000000, 0.000000, 0.000000, 2.000000, 434.900024, 1557648613.664262, 4.000000, 4.000000, 4.000000, 4.000000, 4.000000
7.000000, 0.000000, 4377.435547, 4244.615234, 4075.897217, 4133.333008, 4807.692383, 500.000000, 8122.000000, 8340.000000, 0.000000, 0.000000, 0.000000, 2.000000, 442.900000, 1557648613.672262, 4.000000, 4.000000, 4.000000, 4.000000, 4.000000
8.000000, 0.000000, 4378.461426, 4249.230469, 4077.948730, 4124.102539, 4806.666504, 500.000000, 8128.000000, 8336.000000, 0.000000, 0.000000, 0.000000, 2.000000, 450.800000, 1557648613.680162, 4.000000, 4.000000, 4.000000, 4.000000, 4.000000
9.000000, 0.000000, 4363.589844, 4242.051270, 4075.384521, 4108.717773, 4794.871582, 16139.000000, 8128.000000, 8332.000000, 0.000000, 0.000000, 0.000000, 2.000000, 458.799999, 1557648613.688162, 4.000000, 4.000000, 4.000000, 4.000000, 4.000000
10.000000, 0.000000, 4362.051270, 4234.871582, 4062.051270, 4118.461426, 4781.538574, 500.000000, 8135.000000, 8337.000000, 0.000000, 0.000000, 0.000000, 2.000000, 466.700001, 1557648613.696062, 4.000000, 4.000000, 4.000000, 4.000000, 4.000000
11.000000, 0.000000, 4381.025391, 4262.563965, 4078.974365, 4134.358887, 4795.897461, 16172.000000, 8141.000000, 8335.000000, 0.000000, 0.000000, 0.000000, 2.000000, 474.500000, 1557648613.703862, 4.000000, 4.000000, 4.000000, 4.000000, 4.000000
12.000000, 0.000000, 4389.743652, 4282.563965, 4101.025391, 4131.281738, 4812.307617, 500.000000, 8143.000000, 8324.000000, 0.000000, 0.000000, 0.000000, 2.000000, 482.200001, 1557648613.711562, 4.000000, 4.000000, 4.000000, 4.000000, 4.000000
13.000000, 0.000000, 4377.435547, 4266.666504, 4085.128174, 4121.025391, 4798.974121, 500.000000, 8150.000000, 8323.000000, 0.000000, 0.000000, 0.000000, 2.000000, 490.099998, 1557648613.719462, 4.000000, 4.000000, 4.000000, 4.000000, 4.000000
14.000000, 0.000000, 4372.820313, 4258.974121, 4070.769043, 4126.153809, 4795.897461, 450.000000, 8148.000000, 8337.000000, 0.000000, 0.000000, 0.000000, 2.000000, 498.000000, 1557648613.727362, 4.000000, 4.000000, 4.000000, 4.000000, 4.000000
15.000000, 0.000000, 4387.179199, 4270.256348, 4083.076904, 4138.974121, 4810.769043, 16172.000000, 8151.000000, 8325.000000, 0.000000, 0.000000, 0.000000, 2.000000, 505.900002, 1557648613.735262, 4.000000, 4.000000, 4.000000, 4.000000, 4.000000
16.000000, 0.000000, 4389.230469, 4255.897461, 4070.256348, 4133.333008, 4803.589844, 0.000000, 8150.000000, 8319.000000, 0.000000, 0.000000, 0.000000, 2.000000, 513.900002, 1557648613.743262, 4.000000, 4.000000, 4.000000, 4.000000, 4.000000
17.000000, 0.000000, 4376.922852, 4231.281738, 4050.769043, 4126.666504, 4792.307617, 0.000000, 8151.000000, 8329.000000, 0.000000, 0.000000, 0.000000, 2.000000, 521.800003, 1557648613.751162, 4.000000, 4.000000, 4.000000, 4.000000, 4.000000
18.000000, 0.000000, 4378.974121, 4245.127930, 4066.153809, 4129.230469, 4801.025391, 0.000000, 8153.000000, 8334.000000, 0.000000, 0.000000, 0.000000, 2.000000, 529.800003, 1557648613.759162, 4.000000, 4.000000, 4.000000, 4.000000, 4.000000
19.000000, 0.000000, 4386.153809, 4265.127930, 4072.820313, 4123.589844, 4804.102539, 0.000000, 8153.000000, 8333.000000, 0.000000, 0.000000, 0.000000, 2.000000, 537.699997, 1557648613.767062, 4.000000, 4.000000, 4.000000, 4.000000, 4.000000
20.000000, 0.000000, 4380.512695, 4248.717773, 4052.307617, 4122.563965, 4800.000000, 0.000000, 8147.000000, 8337.000000, 0.000000, 0.000000, 0.000000, 2.000000, 545.500000, 1557648613.774862, 4.000000, 4.000000, 4.000000, 4.000000, 4.000000
21.000000, 0.000000, 4379.487305, 4242.563965, 4052.820313, 4127.692383, 4805.641113, 0.000000, 8150.000000, 8337.000000, 0.000000, 0.000000, 0.000000, 2.000000, 553.199997, 1557648613.782562, 4.000000, 4.000000, 4.000000, 4.000000, 4.000000
22.000000, 0.000000, 4386.666504, 4263.076660, 4071.794678, 4117.436035, 4801.538574, 0.000000, 8149.000000, 8334.000000, 0.000000, 0.000000, 0.000000, 2.000000, 561.199997, 1557648613.790562, 4.000000, 4.000000, 4.000000, 4.000000, 4.000000
23.000000, 0.000000, 4382.051270, 4263.076660, 4061.538330, 4110.769043, 4789.230469, 0.000000, 8150.000000, 8347.000000, 0.000000, 0.000000, 0.000000, 2.000000, 569.100006, 1557648613.798462, 4.000000, 4.000000, 4.000000, 4.000000, 4.000000
24.000000, 0.000000, 4380.512695, 4252.307617, 4048.205078, 4126.666504, 4798.974121, 0.000000, 8146.000000, 8342.000000, 0.000000, 0.000000, 0.000000, 2.000000, 576.899994, 1557648613.806262, 4.000000, 4.000000, 4.000000, 4.000000, 4.000000
25.000000, 0.000000, 4395.384277, 4263.076660, 4062.051270, 4129.743652, 4809.230469, 0.000000, 8148.000000, 8339.000000, 0.000000, 0.000000, 0.000000, 2.000000, 584.899994, 1557648613.814262, 4.000000, 4.000000, 4.000000, 4.000000, 4.000000
26.000000, 0.000000, 4400.000000, 4272.307617, 4060.512695, 4118.974121, 4789.743652, 0.000000, 8140.000000, 8339.000000, 0.000000, 0.000000, 0.000000, 2.000000, 592.800003, 1557648613.822162, 4.000000, 4.000000, 4.000000, 4.000000, 4.000000
27.000000, 0.000000, 4379.487305, 4253.333008, 4031.794678, 4130.256348, 4767.692383, 0.000000, 8140.000000, 8354.000000, 0.000000, 0.000000, 0.000000, 2.000000, 600.800003, 1557648613.830162, 4.000000, 4.000000, 4.000000, 4.000000, 4.000000
28.000000, 0.000000, 4364.102539, 4235.384277, 4008.717773, 4134.358887, 4767.179199, 0.000000, 8136.000000, 8356.000000, 0.000000, 0.000000, 0.000000, 2.000000, 608.699997, 1557648613.838062, 4.000000, 4.000000, 4.000000, 4.000000, 4.000000
29.000000, 0.000000, 4368.717773, 4246.666504, 3998.974365, 4114.358887, 4766.153809, 0.000000, 8140.000000, 8343.000000, 0.000000, 0.000000, 0.000000, 2.000000, 616.500000, 1557648613.845862, 4.000000, 4.000000, 4.000000, 4.000000, 4.000000
30.000000, 0.000000, 4370.769043, 4248.717773, 4003.589600, 4111.281738, 4759.487305, 0.000000, 8142.000000, 8349.000000, 0.000000, 0.000000, 0.000000, 2.000000, 624.199997, 1557648613.853562, 4.000000, 4.000000, 4.000000, 4.000000, 4.000000
31.000000, 0.000000, 4374.358887, 4232.307617, 4031.794678, 4127.692383, 4769.743652, 0.000000, 8139.000000, 8358.000000, 0.000000, 0.000000, 0.000000, 2.000000, 632.100006, 1557648613.861462, 4.000000, 4.000000, 4.000000, 4.000000, 4.000000
32.000000, 0.000000, 4386.666504, 4234.871582, 4046.153809, 4138.461426, 4786.153809, 0.000000, 8145.000000, 8349.000000, 0.000000, 0.000000, 0.000000, 2.000000, 640.000000, 1557648613.869362, 4.000000, 4.000000, 4.000000, 4.000000, 4.000000
33.000000, 0.000000, 4385.641113, 4240.000000, 4023.589600, 4138.974121, 4780.000000, 0.000000, 8140.000000, 8352.000000, 0.000000, 0.000000, 0.000000, 2.000000, 647.899994, 1557648613.877262, 4.000000, 4.000000, 4.000000, 4.000000, 4.000000
34.000000, 0.000000, 4374.358887, 4229.230469, 4009.743408, 4130.256348, 4771.794922, 0.000000, 8142.000000, 8354.000000, 0.000000, 0.000000, 0.000000, 2.000000, 655.899994, 1557648613.885262, 4.000000, 4.000000, 4.000000, 4.000000, 4.000000
35.000000, 0.000000, 4378.461426, 4236.922852, 4029.743408, 4129.230469, 4775.384277, 0.000000, 8147.000000, 8352.000000, 0.000000, 0.000000, 0.000000, 2.000000, 663.800003, 1557648613.893162, 4.000000, 4.000000, 4.000000, 4.000000, 4.000000
36.000000, 0.000000, 4377.435547, 4247.179199, 4034.358887, 4135.384277, 4774.358887, 0.000000, 8143.000000, 8354.000000, 0.000000, 0.000000, 0.000000, 2.000000, 671.800003, 1557648613.901162, 4.000000, 4.000000, 4.000000, 4.000000, 4.000000
37.000000, 0.000000, 4369.230469, 4237.436035, 4018.974365, 4134.358887, 4772.820313, 0.000000, 8146.000000, 8356.000000, 0.000000, 0.000000, 0.000000, 2.000000, 679.500000, 1557648613.908862, 4.000000, 4.000000, 4.000000, 4.000000, 4.000000
38.000000, 0.000000, 4380.512695, 4241.025391, 4023.076904, 4142.051270, 4782.051270, 0.000000, 8145.000000, 8348.000000, 0.000000, 0.000000, 0.000000, 2.000000, 687.300003, 1557648613.916662, 4.000000, 4.000000, 4.000000, 4.000000, 4.000000
39.000000, 0.000000, 4385.641113, 4257.436035, 4032.820313, 4152.820313, 4786.666504, 0.000000, 8143.000000, 8346.000000, 0.000000, 0.000000, 0.000000, 2.000000, 695.100006, 1557648613.924462, 4.000000, 4.000000, 4.000000, 4.000000, 4.000000
40.000000, 0.000000, 4372.820313, 4252.820313, 4026.153809, 4146.153809, 4777.435547, 0.000000, 8144.000000, 8350.000000, 0.000000, 0.000000, 0.000000, 2.000000, 703.100006, 1557648613.932462, 4.000000, 4.000000, 4.000000, 4.000000, 4.000000
41.000000, 0.000000, 4369.230469, 4242.563965, 4019.487061, 4134.871582, 4761.025391, 0.000000, 8141.000000, 8352.000000, 0.000000, 0.000000, 0.000000, 2.000000, 711.000000, 1557648613.940362, 4.000000, 4.000000, 4.000000, 4.000000, 4.000000
42.000000, 0.000000, 4374.871582, 4257.436035, 4029.743408, 4133.333008, 4755.384277, 0.000000, 8142.000000, 8337.000000, 0.000000, 0.000000, 0.000000, 2.000000, 718.899994, 1557648613.948262, 4.000000, 4.000000, 4.000000, 4.000000, 4.000000
43.000000, 0.000000, 4373.846191, 4272.820313, 4045.128174, 4131.281738, 4767.692383, 0.000000, 8139.000000, 8340.000000, 0.000000, 0.000000, 0.000000, 2.000000, 726.899994, 1557648613.956262, 4.000000, 4.000000, 4.000000, 4.000000, 4.000000
44.000000, 0.000000, 4372.820313, 4258.461426, 4032.307617, 4126.666504, 4766.666504, 0.000000, 8138.000000, 8345.000000, 0.000000, 0.000000, 0.000000, 2.000000, 734.799988, 1557648613.964162, 4.000000, 4.000000, 4.000000, 4.000000, 4.000000
45.000000, 0.000000, 4373.333008, 4238.974121, 4002.051270, 4138.461426, 4752.307617, 0.000000, 8137.000000, 8339.000000, 0.000000, 0.000000, 0.000000, 2.000000, 742.799988, 1557648613.972162, 4.000000, 4.000000, 4.000000, 4.000000, 4.000000
46.000000, 0.000000, 4369.743652, 4245.127930, 4008.205078, 4141.538574, 4749.230469, 0.000000, 8139.000000, 8336.000000, 0.000000, 0.000000, 0.000000, 2.000000, 750.500000, 1557648613.979862, 4.000000, 4.000000, 4.000000, 4.000000, 4.000000
47.000000, 0.000000, 4362.051270, 4246.666504, 4032.820313, 4122.563965, 4741.538574, 0.000000, 8127.000000, 8342.000000, 0.000000, 0.000000, 0.000000, 2.000000, 758.299988, 1557648613.987662, 4.000000, 4.000000, 4.000000, 4.000000, 4.000000
48.000000, 0.000000, 4364.102539, 4238.461426, 4026.153809, 4121.025391, 4736.410156, 0.000000, 8138.000000, 8343.000000, 0.000000, 0.000000, 0.000000, 2.000000, 766.000000, 1557648613.995362, 4.000000, 4.000000, 4.000000, 4.000000, 4.000000
49.000000, 0.000000, 4373.333008, 4244.102539, 4017.948730, 4136.410156, 4748.717773, 0.000000, 8139.000000, 8348.000000, 0.000000, 0.000000, 0.000000, 2.000000, 774.000000, 1557648614.003362, 4.000000, 4.000000, 4.000000, 4.000000, 4.000000
50.000000, 0.000000, 4369.230469, 4237.948730, 4021.538330, 4140.000000, 4753.846191, 0.000000, 8132.000000, 8345.000000, 0.000000, 0.000000, 0.000000, 2.000000, 781.899994, 1557648614.011262, 4.000000, 4.000000, 4.000000, 4.000000, 4.000000
51.000000, 0.000000, 4364.615234, 4221.538574, 4010.769043, 4136.410156, 4749.743652, 0.000000, 8134.000000, 8336.000000, 0.000000, 0.000000, 0.000000, 2.000000, 789.799988, 1557648614.019162, 4.000000, 4.000000, 4.000000, 4.000000, 4.000000
52.000000, 0.000000, 4367.692383, 4224.615234, 3993.333252, 4129.743652, 4749.230469, 0.000000, 8138.000000, 8341.000000, 0.000000, 0.000000, 0.000000, 2.000000, 797.799988, 1557648614.027162, 4.000000, 4.000000, 4.000000, 4.000000, 4.000000
53.000000, 0.000000, 4370.769043, 4231.281738, 3988.717773, 4123.589844, 4744.615234, 0.000000, 8133.000000, 8349.000000, 0.000000, 0.000000, 0.000000, 2.000000, 805.500000, 1557648614.034862, 4.000000, 4.000000, 4.000000, 4.000000, 4.000000
54.000000, 0.000000, 4375.897461, 4230.256348, 3991.281982, 4129.230469, 4742.563965, 0.000000, 8144.000000, 8353.000000, 0.000000, 0.000000, 0.000000, 2.000000, 813.299988, 1557648614.042662, 4.000000, 4.000000, 4.000000, 4.000000, 4.000000
55.000000, 0.000000, 4384.102539, 4237.436035, 3995.897217, 4140.000000, 4750.769043, 0.000000, 8150.000000, 8349.000000, 0.000000, 0.000000, 0.000000, 2.000000, 821.000000, 1557648614.050362, 4.000000, 4.000000, 4.000000, 4.000000, 4.000000
56.000000, 0.000000, 4387.179199, 4243.589844, 3994.871582, 4139.487305, 4753.846191, 0.000000, 8140.000000, 8348.000000, 0.000000, 0.000000, 0.000000, 2.000000, 829.000000, 1557648614.058362, 4.000000, 4.000000, 4.000000, 4.000000, 4.000000
57.000000, 0.000000, 4393.846191, 4235.384277, 3987.179443, 4137.948730, 4748.205078, 0.000000, 8139.000000, 8367.000000, 0.000000, 0.000000, 0.000000, 2.000000, 836.899994, 1557648614.066262, 4.000000, 4.000000, 4.000000, 4.000000, 4.000000
58.000000, 0.000000, 4390.769043, 4231.281738, 3984.615234, 4140.512695, 4732.820313, 0.000000, 8149.000000, 8359.000000, 0.000000, 0.000000, 0.000000, 2.000000, 844.899994, 1557648614.074262, 4.000000, 4.000000, 4.000000, 4.000000, 4.000000
59.000000, 0.000000, 4363.589844, 4231.281738, 3983.589600, 4134.358887, 4712.820313, 0.000000, 8149.000000, 8357.000000, 0.000000, 0.000000, 0.000000, 2.000000, 852.799988, 1557648614.082162, 4.000000, 4.000000, 4.000000, 4.000000, 4.000000
60.000000, 0.000000, 4356.922852, 4232.820313, 3991.794678, 4129.230469, 4710.256348, 0.000000, 8147.000000, 8357.000000, 0.000000, 0.000000, 0.000000, 2.000000, 860.700012, 1557648614.090062, 4.000000, 4.000000, 4.000000, 4.000000, 4.000000
61.000000, 0.000000, 4373.333008, 4231.794922, 4009.230713, 4131.281738, 4721.025391, 0.000000, 8150.000000, 8356.000000, 0.000000, 0.000000, 0.000000, 2.000000, 868.700012, 1557648614.098062, 4.000000, 4.000000, 4.000000, 4.000000, 4.000000
62.000000, 0.000000, 4370.256348, 4222.051270, 4002.563965, 4131.794922, 4719.487305, 0.000000, 8143.000000, 8357.000000, 0.000000, 0.000000, 0.000000, 2.000000, 876.399994, 1557648614.105762, 4.000000, 4.000000, 4.000000, 4.000000, 4.000000
63.000000, 0.000000, 4368.717773, 4217.948730, 3988.205078, 4137.436035, 4713.846191, 0.000000, 8147.000000, 8356.000000, 0.000000, 0.000000, 0.000000, 2.000000, 884.200012, 1557648614.113562, 4.000000, 4.000000, 4.000000, 4.000000, 4.000000
64.000000, 0.000000, 4384.615234, 4228.205078, 3992.307617, 4142.051270, 4717.435547, 500.000000, 8153.000000, 8352.000000, 0.000000, 0.000000, 0.000000, 2.000000, 892.000000, 1557648614.121362, 4.000000, 4.000000, 4.000000, 4.000000, 4.000000
65.000000, 0.000000, 4380.000000, 4229.743652, 3991.281982, 4135.384277, 4716.410156, 500.000000, 8154.000000, 8348.000000, 0.000000, 0.000000, 0.000000, 2.000000, 900.000000, 1557648614.129362, 4.000000, 4.000000, 4.000000, 4.000000, 4.000000
66.000000, 0.000000, 4354.358887, 4216.410156, 3986.666504, 4130.256348, 4699.487305, 16193.000000, 8145.000000, 8356.000000, 0.000000, 0.000000, 0.000000, 2.000000, 907.899994, 1557648614.137262, 4.000000, 4.000000, 4.000000, 4.000000, 4.000000
67.000000, 0.000000, 4351.281738, 4212.820313, 3987.692139, 4133.846191, 4687.692383, 500.000000, 8146.000000, 8359.000000, 0.000000, 0.000000, 0.000000, 2.000000, 915.899994, 1557648614.145262, 4.000000, 4.000000, 4.000000, 4.000000, 4.000000
68.000000, 0.000000, 4356.922852, 4225.641113, 3976.923096, 4132.820313, 4693.846191, 16121.000000, 8148.000000, 8344.000000, 0.000000, 0.000000, 0.000000, 2.000000, 923.799988, 1557648614.153162, 4.000000, 4.000000, 4.000000, 4.000000, 4.000000
69.000000, 0.000000, 4354.358887, 4238.461426, 3969.743408, 4126.153809, 4705.127930, 500.000000, 8145.000000, 8348.000000, 0.000000, 0.000000, 0.000000, 2.000000, 931.700012, 1557648614.161062, 4.000000, 4.000000, 4.000000, 4.000000, 4.000000
70.000000, 0.000000, 4357.948730, 4241.025391, 3990.256348, 4125.127930, 4707.179199, 16111.000000, 8143.000000, 8354.000000, 0.000000, 0.000000, 0.000000, 2.000000, 939.500000, 1557648614.168862, 4.000000, 4.000000, 4.000000, 4.000000, 4.000000
71.000000, 0.000000, 4369.743652, 4236.922852, 4014.358887, 4140.000000, 4703.589844, 500.000000, 8132.000000, 8356.000000, 0.000000, 0.000000, 0.000000, 2.000000, 947.200012, 1557648614.176562, 4.000000, 4.000000, 4.000000, 4.000000, 4.000000
72.000000, 0.000000, 4368.205078, 4228.205078, 4016.410156, 4146.153809, 4702.563965, 500.000000, 8138.000000, 8346.000000, 0.000000, 0.000000, 0.000000, 2.000000, 955.099976, 1557648614.184462, 4.000000, 4.000000, 4.000000, 4.000000, 4.000000
73.000000, 0.000000, 4348.205078, 4215.897461, 4006.666504, 4131.281738, 4695.897461, 16142.000000, 8133.000000, 8349.000000, 0.000000, 0.000000, 0.000000, 2.000000, 963.000000, 1557648614.192362, 4.000000, 4.000000, 4.000000, 4.000000, 4.000000
74.000000, 0.000000, 4339.487305, 4215.897461, 4009.743408, 4124.615234, 4687.179199, 500.000000, 8134.000000, 8352.000000, 0.000000, 0.000000, 0.000000, 2.000000, 971.000000, 1557648614.200362, 4.000000, 4.000000, 4.000000, 4.000000, 4.000000
75.000000, 0.000000, 4348.205078, 4229.743652, 4035.897217, 4131.794922, 4685.127930, 16175.000000, 8137.000000, 8342.000000, 0.000000, 0.000000, 0.000000, 2.000000, 978.900024, 1557648614.208262, 4.000000, 4.000000, 4.000000, 4.000000, 4.000000
76.000000, 0.000000, 4364.615234, 4243.076660, 4045.640869, 4136.922852, 4695.897461, 500.000000, 8130.000000, 8345.000000, 0.000000, 0.000000, 0.000000, 2.000000, 986.900024, 1557648614.216262, 4.000000, 4.000000, 4.000000, 4.000000, 4.000000
77.000000, 0.000000, 4377.948730, 4246.153809, 4030.256348, 4133.846191, 4709.743652, 500.000000, 8139.000000, 8346.000000, 0.000000, 0.000000, 0.000000, 2.000000, 994.799988, 1557648614.224162, 4.000000, 4.000000, 4.000000, 4.000000, 4.000000
78.000000, 0.000000, 4377.435547, 4250.769043, 4021.025635, 4140.000000, 4713.333008, 450.000000, 8140.000000, 8344.000000, 0.000000, 0.000000, 0.000000, 3.000000, 2.799988, 1557648614.232162, 4.000000, 4.000000, 4.000000, 4.000000, 4.000000
79.000000, 0.000000, 4368.717773, 4252.307617, 4012.820313, 4139.487305, 4707.179199, 16175.000000, 8135.000000, 8349.000000, 0.000000, 0.000000, 0.000000, 3.000000, 10.500000, 1557648614.239862, 4.000000, 4.000000, 4.000000, 4.000000, 4.000000
80.000000, 0.000000, 4356.410156, 4241.025391, 3998.974365, 4125.641113, 4691.281738, 450.000000, 8131.000000, 8353.000000, 0.000000, 0.000000, 0.000000, 3.000000, 18.200012, 1557648614.247562, 4.000000, 4.000000, 4.000000, 4.000000, 4.000000
81.000000, 0.000000, 4346.666504, 4232.307617, 4002.563965, 4126.666504, 4675.897461, 450.000000, 8135.000000, 8342.000000, 0.000000, 0.000000, 0.000000, 3.000000, 26.000000, 1557648614.255362, 4.000000, 4.000000, 4.000000, 4.000000, 4.000000
82.000000, 0.000000, 4354.871582, 4235.384277, 4005.640869, 4130.256348, 4677.435547, 450.000000, 8141.000000, 8338.000000, 0.000000, 0.000000, 0.000000, 3.000000, 33.900024, 1557648614.263262, 4.000000, 4.000000, 4.000000, 4.000000, 4.000000
83.000000, 0.000000, 4371.281738, 4234.358887, 3987.692139, 4127.179199, 4671.794922, 16175.000000, 8136.000000, 8340.000000, 0.000000, 0.000000, 0.000000, 3.000000, 41.900024, 1557648614.271262, 4.000000, 4.000000, 4.000000, 4.000000, 4.000000
84.000000, 0.000000, 4369.743652, 4225.641113, 3983.589600, 4129.743652, 4649.230469, 450.000000, 8135.000000, 8345.000000, 0.000000, 0.000000, 0.000000, 3.000000, 49.799988, 1557648614.279162, 4.000000, 4.000000, 4.000000, 4.000000, 4.000000
85.000000, 0.000000, 4365.127930, 4230.769043, 3987.692139, 4130.769043, 4648.205078, 450.000000, 8137.000000, 8336.000000, 0.000000, 0.000000, 0.000000, 3.000000, 57.799988, 1557648614.287162, 4.000000, 4.000000, 4.000000, 4.000000, 4.000000
86.000000, 0.000000, 4367.692383, 4232.820313, 3964.615234, 4125.127930, 4652.820313, 450.000000, 8136.000000, 8335.000000, 0.000000, 0.000000, 0.000000, 3.000000, 65.500000, 1557648614.294862, 4.000000, 4.000000, 4.000000, 4.000000, 4.000000
87.000000, 0.000000, 4360.000000, 4225.127930, 3941.538330, 4120.512695, 4633.846191, 16175.000000, 8133.000000, 8340.000000, 0.000000, 0.000000, 0.000000, 3.000000, 73.299988, 1557648614.302662, 4.000000, 4.000000, 4.000000, 4.000000, 4.000000
88.000000, 0.000000, 4356.922852, 4225.127930, 3950.769043, 4127.179199, 4637.435547, 450.000000, 8137.000000, 8336.000000, 0.000000, 0.000000, 0.000000, 3.000000, 81.000000, 1557648614.310362, 4.000000, 4.000000, 4.000000, 4.000000, 4.000000
89.000000, 0.000000, 4369.230469, 4235.384277, 3971.281982, 4135.897461, 4661.538574, 450.000000, 8141.000000, 8335.000000, 0.000000, 0.000000, 0.000000, 3.000000, 88.900024, 1557648614.318262, 4.000000, 4.000000, 4.000000, 4.000000, 4.000000
90.000000, 0.000000, 4374.871582, 4241.538574, 3980.000000, 4135.897461, 4660.512695, 450.000000, 8142.000000, 8336.000000, 0.000000, 0.000000, 0.000000, 3.000000, 96.900024, 1557648614.326262, 4.000000, 4.000000, 4.000000, 4.000000, 4.000000
91.000000, 0.000000, 4369.230469, 4243.076660, 3989.230713, 4133.846191, 4658.461426, 16175.000000, 8146.000000, 8336.000000, 0.000000, 0.000000, 0.000000, 3.000000, 104.799988, 1557648614.334162, 4.000000, 4.000000, 4.000000, 4.000000, 4.000000
92.000000, 0.000000, 4368.205078, 4252.820313, 4003.589600, 4135.897461, 4662.051270, 450.000000, 8148.000000, 8338.000000, 0.000000, 0.000000, 0.000000, 3.000000, 112.799988, 1557648614.342162, 4.000000, 4.000000, 4.000000, 4.000000, 4.000000
93.000000, 0.000000, 4366.666504, 4248.205078, 4004.615234, 4135.384277, 4639.487305, 450.000000, 8143.000000, 8336.000000, 0.000000, 0.000000, 0.000000, 3.000000, 120.700012, 1557648614.350062, 4.000000, 4.000000, 4.000000, 4.000000, 4.000000
94.000000, 0.000000, 4359.487305, 4232.307617, 3995.384521, 4131.281738, 4622.563965, 450.000000, 8147.000000, 8329.000000, 0.000000, 0.000000, 0.000000, 3.000000, 128.700012, 1557648614.358062, 4.000000, 4.000000, 4.000000, 4.000000, 4.000000
95.000000, 0.000000, 4353.333008, 4234.871582, 3984.615234, 4127.179199, 4627.179199, 16175.000000, 8139.000000, 8331.000000, 0.000000, 0.000000, 0.000000, 3.000000, 136.400024, 1557648614.365762, 4.000000, 4.000000, 4.000000, 4.000000, 4.000000
96.000000, 0.000000, 4345.641113, 4249.743652, 3976.923096, 4124.615234, 4618.461426, 450.000000, 8144.000000, 8343.000000, 0.000000, 0.000000, 0.000000, 3.000000, 144.200012, 1557648614.373562, 4.000000, 4.000000, 4.000000, 4.000000, 4.000000
97.000000, 0.000000, 4333.846191, 4239.487305, 3976.923096, 4123.589844, 4601.538574, 450.000000, 8148.000000, 8346.000000, 0.000000, 0.000000, 0.000000, 3.000000, 152.099976, 1557648614.381462, 4.000000, 4.000000, 4.000000, 4.000000, 4.000000
98.000000, 0.000000, 4328.205078, 4216.922852, 3981.538330, 4125.641113, 4596.922852, 450.000000, 8150.000000, 8331.000000, 0.000000, 0.000000, 0.000000, 3.000000, 160.000000, 1557648614.389362, 4.000000, 4.000000, 4.000000, 4.000000, 4.000000
99.000000, 0.000000, 4341.025391, 4224.615234, 3990.256348, 4132.820313, 4605.641113, 16175.000000, 8146.000000, 8341.000000, 0.000000, 0.000000, 0.000000, 3.000000, 168.000000, 1557648614.397362, 4.000000, 4.000000, 4.000000, 4.000000, 4.000000
100.000000, 0.000000, 4348.717773, 4237.436035, 3989.230713, 4132.820313, 4610.256348, 450.000000, 8141.000000, 8351.000000, 0.000000, 0.000000, 0.000000, 3.000000, 175.900024, 1557648614.405262, 4.000000, 4.000000, 4.000000, 4.000000, 4.000000
101.000000, 0.000000, 4328.717773, 4224.615234, 3983.076904, 4117.436035, 4588.717773, 450.000000, 8148.000000, 8351.000000, 0.000000, 0.000000, 0.000000, 3.000000, 183.900024, 1557648614.413262, 4.000000, 4.000000, 4.000000, 4.000000, 4.000000
102.000000, 0.000000, 4312.820313, 4205.641113, 3983.076904, 4109.230469, 4563.589844, 450.000000, 8151.000000, 8355.000000, 0.000000, 0.000000, 0.000000, 3.000000, 191.799988, 1557648614.421162, 4.000000, 4.000000, 4.000000, 4.000000, 4.000000
103.000000, 0.000000, 4322.563965, 4199.487305, 3980.512695, 4121.538574, 4566.666504, 16175.000000, 8141.000000, 8365.000000, 0.000000, 0.000000, 0.000000, 3.000000, 199.599976, 1557648614.428962, 4.000000, 4.000000, 4.000000, 4.000000, 4.000000
104.000000, 0.000000, 4327.179199, 4197.436035, 3985.640869, 4126.153809, 4578.461426, 450.000000, 8144.000000, 8363.000000, 0.000000, 0.000000, 0.000000, 3.000000, 207.299988, 1557648614.436662, 4.000000, 4.000000, 4.000000, 4.000000, 4.000000
105.000000, 0.000000, 4322.051270, 4198.461426, 4000.000000, 4112.307617, 4574.871582, 450.000000, 8146.000000, 8362.000000, 0.000000, 0.000000, 0.000000, 3.000000, 215.099976, 1557648614.444462, 4.000000, 4.000000, 4.000000, 4.000000, 4.000000
106.000000, 0.000000, 4330.769043, 4212.307617, 4003.076904, 4114.871582, 4566.666504, 450.000000, 8144.000000, 8370.000000, 0.000000, 0.000000, 0.000000, 3.000000, 223.000000, 1557648614.452362, 4.000000, 4.000000, 4.000000, 4.000000, 4.000000
107.000000, 0.000000, 4334.358887, 4221.025391, 3993.333252, 4128.205078, 4563.076660, 16175.000000, 8145.000000, 8365.000000, 0.000000, 0.000000, 0.000000, 3.000000, 230.900024, 1557648614.460262, 4.000000, 4.000000, 4.000000, 4.000000, 4.000000
108.000000, 0.000000, 4327.692383, 4215.897461, 3997.435791, 4126.153809, 4567.179199, 450.000000, 8144.000000, 8367.000000, 0.000000, 0.000000, 0.000000, 3.000000, 238.900024, 1557648614.468262, 4.000000, 4.000000, 4.000000, 4.000000, 4.000000
109.000000, 0.000000, 4335.384277, 4212.307617, 4003.589600, 4124.102539, 4574.358887, 450.000000, 8144.000000, 8379.000000, 0.000000, 0.000000, 0.000000, 3.000000, 246.799988, 1557648614.476162, 4.000000, 4.000000, 4.000000, 4.000000, 4.000000
110.000000, 0.000000, 4342.051270, 4215.897461, 3994.358887, 4124.102539, 4573.333008, 450.000000, 8132.000000, 8369.000000, 0.000000, 0.000000, 0.000000, 3.000000, 254.799988, 1557648614.484162, 4.000000, 4.000000, 4.000000, 4.000000, 4.000000
111.000000, 0.000000, 4330.769043, 4214.358887, 4001.538330, 4121.538574, 4575.897461, 16175.000000, 8128.000000, 8363.000000, 0.000000, 0.000000, 0.000000, 3.000000, 262.500000, 1557648614.491862, 4.000000, 4.000000, 4.000000, 4.000000, 4.000000
112.000000, 0.000000, 4325.127930, 4217.436035, 4029.230713, 4123.589844, 4585.127930, 450.000000, 8127.000000, 8359.000000, 0.000000, 0.000000, 0.000000, 3.000000, 270.299988, 1557648614.499662, 4.000000, 4.000000, 4.000000, 4.000000, 4.000000
113.000000, 0.000000, 4342.051270, 4235.384277, 4055.384521, 4127.692383, 4588.717773, 450.000000, 8126.000000, 8365.000000, 0.000000, 0.000000, 0.000000, 3.000000, 278.099976, 1557648614.507462, 4.000000, 4.000000, 4.000000, 4.000000, 4.000000
114.000000, 0.000000, 4353.333008, 4237.948730, 4064.102539, 4127.179199, 4585.127930, 450.000000, 8132.000000, 8360.000000, 0.000000, 0.000000, 0.000000, 3.000000, 286.099976, 1557648614.515462, 4.000000, 4.000000, 4.000000, 4.000000, 4.000000
115.000000, 0.000000, 4328.717773, 4218.974121, 4045.128174, 4123.076660, 4571.281738, 16175.000000, 8133.000000, 8355.000000, 0.000000, 0.000000, 0.000000, 3.000000, 294.000000, 1557648614.523362, 4.000000, 4.000000, 4.000000, 4.000000, 4.000000
116.000000, 0.000000, 4292.307617, 4208.717773, 4013.333252, 4116.922852, 4548.205078, 450.000000, 8132.000000, 8359.000000, 0.000000, 0.000000, 0.000000, 3.000000, 301.900024, 1557648614.531262, 4.000000, 4.000000, 4.000000, 4.000000, 4.000000
117.000000, 0.000000, 4290.769043, 4213.333008, 4002.051270, 4113.333008, 4532.820313, 450.000000, 8138.000000, 8352.000000, 0.000000, 0.000000, 0.000000, 3.000000, 309.900024, 1557648614.539262, 4.000000, 4.000000, 4.000000, 4.000000, 4.000000
118.000000, 0.000000, 4308.717773, 4215.897461, 4011.281982, 4127.179199, 4537.435547, 450.000000, 8128.000000, 8342.000000, 0.000000, 0.000000, 0.000000, 3.000000, 317.799988, 1557648614.547162, 4.000000, 4.000000, 4.000000, 4.000000, 4.000000
119.000000, 0.000000, 4314.358887, 4213.846191, 4020.512695, 4144.615234, 4551.281738, 16175.000000, 8127.000000, 8351.000000, 0.000000, 0.000000, 0.000000, 3.000000, 325.799988, 1557648614.555162, 4.000000, 4.000000, 4.000000, 4.000000, 4.000000
120.000000, 0.000000, 4322.563965, 4221.025391, 4028.717773, 4138.974121, 4562.563965, 450.000000, 8138.000000, 8355.000000, 0.000000, 0.000000, 0.000000, 3.000000, 333.500000, 1557648614.562862, 4.000000, 4.000000, 4.000000, 4.000000, 4.000000
121.000000, 0.000000, 4337.948730, 4233.333008, 4029.230713, 4129.743652, 4573.333008, 450.000000, 8138.000000, 8341.000000, 0.000000, 0.000000, 0.000000, 3.000000, 341.299988, 1557648614.570662, 4.000000, 4.000000, 4.000000, 4.000000, 4.000000
122.000000, 0.000000, 4341.025391, 4233.333008, 4014.871582, 4134.358887, 4571.794922, 450.000000, 8133.000000, 8357.000000, 0.000000, 0.000000, 0.000000, 3.000000, 349.099976, 1557648614.578462, 4.000000, 4.000000, 4.000000, 4.000000, 4.000000
123.000000, 0.000000, 4336.922852, 4229.230469, 4012.820313, 4135.897461, 4558.974121, 16175.000000, 8137.000000, 8359.000000, 0.000000, 0.000000, 0.000000, 3.000000, 357.099976, 1557648614.586462, 4.000000, 4.000000, 4.000000, 4.000000, 4.000000
124.000000, 0.000000, 4340.512695, 4234.871582, 4025.640869, 4135.384277, 4557.948730, 450.000000, 8137.000000, 8342.000000, 0.000000, 0.000000, 0.000000, 3.000000, 365.000000, 1557648614.594362, 4.000000, 4.000000, 4.000000, 4.000000, 4.000000
125.000000, 0.000000, 4345.641113, 4241.025391, 4022.563965, 4135.897461, 4565.127930, 450.000000, 8134.000000, 8345.000000, 0.000000, 0.000000, 0.000000, 3.000000, 373.000000, 1557648614.602362, 4.000000, 4.000000, 4.000000, 4.000000, 4.000000
126.000000, 0.000000, 4350.256348, 4244.102539, 4013.333252, 4129.743652, 4565.641113, 450.000000, 8139.000000, 8356.000000, 0.000000, 0.000000, 0.000000, 3.000000, 380.900024, 1557648614.610262, 4.000000, 4.000000, 4.000000, 4.000000, 4.000000
127.000000, 0.000000, 4352.820313, 4250.769043, 4016.410156, 4130.769043, 4567.692383, 16175.000000, 8139.000000, 8360.000000, 0.000000, 0.000000, 0.000000, 3.000000, 388.799988, 1557648614.618162, 4.000000, 4.000000, 4.000000, 4.000000, 4.000000
128.000000, 0.000000, 4344.102539, 4247.179199, 4008.717773, 4141.538574, 4571.794922, 500.000000, 8138.000000, 8353.000000, 0.000000, 0.000000, 0.000000, 3.000000, 396.599976, 1557648614.625962, 4.000000, 4.000000, 4.000000, 4.000000, 4.000000
0.000000, 0.000000, 4344.102539, 4236.410156, 3993.333252, 4148.205078, 4569.743652, 500.000000, 8145.000000, 8360.000000, 0.000000, 0.000000, 0.000000, 3.000000, 404.299988, 1557648614.633662, 4.000000, 4.000000, 4.000000, 4.000000, 4.000000
1.000000, 0.000000, 4363.076660, 4230.769043, 3992.307617, 4136.410156, 4569.743652, 500.000000, 8146.000000, 8360.000000, 0.000000, 0.000000, 0.000000, 3.000000, 412.099976, 1557648614.641462, 4.000000, 4.000000, 4.000000, 4.000000, 4.000000
2.000000, 0.000000, 4379.487305, 4225.127930, 3984.615234, 4120.512695, 4562.051270, 16196.000000, 8150.000000, 8362.000000, 0.000000, 0.000000, 0.000000, 3.000000, 420.000000, 1557648614.649362, 4.000000, 4.000000, 4.000000, 4.000000, 4.000000
3.000000, 0.000000, 4388.717773, 4226.666504, 3974.871582, 4123.589844, 4549.230469, 500.000000, 8152.000000, 8364.000000, 0.000000, 0.000000, 0.000000, 3.000000, 428.000000, 1557648614.657362, 4.000000, 4.000000, 4.000000, 4.000000, 4.000000
4.000000, 0.000000, 4398.974121, 4234.871582, 3989.743408, 4127.692383, 4551.281738, 16121.000000, 8153.000000, 8361.000000, 0.000000, 0.000000, 0.000000, 3.000000, 435.900024, 1557648614.665262, 4.000000, 4.000000, 4.000000, 4.000000, 4.000000
5.000000, 0.000000, 4400.512695, 4223.589844, 4002.051270, 4120.000000, 4551.794922, 500.000000, 8160.000000, 8353.000000, 0.000000, 0.000000, 0.000000, 3.000000, 443.900000, 1557648614.673262, 4.000000, 4.000000, 4.000000, 4.000000, 4.000000
6.000000, 0.000000, 4414.871582, 4221.538574, 3993.845947, 4123.589844, 4563.076660, 16110.000000, 8154.000000, 8357.000000, 0.000000, 0.000000, 0.000000, 3.000000, 451.800000, 1557648614.681162, 4.000000, 4.000000, 4.000000, 4.000000, 4.000000
7.000000, 0.000000, 4446.153809, 4246.666504, 3982.051270, 4136.410156, 4596.922852, 500.000000, 8159.000000, 8364.000000, 0.000000, 0.000000, 0.000000, 3.000000, 459.700001, 1557648614.689062, 4.000000, 4.000000, 4.000000, 4.000000, 4.000000
8.000000, 0.000000, 4443.076660, 4246.153809, 3972.307617, 4135.384277, 4588.205078, 500.000000, 8159.000000, 8354.000000, 0.000000, 0.000000, 0.000000, 3.000000, 467.500000, 1557648614.696862, 4.000000, 4.000000, 4.000000, 4.000000, 4.000000
9.000000, 0.000000, 4426.153809, 4227.179199, 3974.871582, 4135.384277, 4550.256348, 16143.000000, 8159.000000, 8357.000000, 0.000000, 0.000000, 0.000000, 3.000000, 475.200001, 1557648614.704562, 4.000000, 4.000000, 4.000000, 4.000000, 4.000000
10.000000, 0.000000, 4437.435547, 4242.051270, 4003.076904, 4147.692383, 4594.358887, 500.000000, 8158.000000, 8366.000000, 0.000000, 0.000000, 0.000000, 3.000000, 483.099998, 1557648614.712462, 4.000000, 4.000000, 4.000000, 4.000000, 4.000000
11.000000, 0.000000, 4431.281738, 4255.384277, 4017.435791, 4142.051270, 4573.333008, 16179.000000, 8161.000000, 8368.000000, 0.000000, 0.000000, 0.000000, 3.000000, 491.000000, 1557648614.720362, 4.000000, 4.000000, 4.000000, 4.000000, 4.000000
12.000000, 0.000000, 4391.794922, 4235.897461, 4005.128174, 4126.153809, 4331.281738, 500.000000, 8163.000000, 8357.000000, 0.000000, 0.000000, 0.000000, 3.000000, 499.000000, 1557648614.728362, 4.000000, 4.000000, 4.000000, 4.000000, 4.000000
13.000000, 0.000000, 4366.153809, 4225.127930, 4010.769043, 4128.205078, 4117.948730, 500.000000, 8160.000000, 8355.000000, 0.000000, 0.000000, 0.000000, 3.000000, 506.900002, 1557648614.736262, 4.000000, 4.000000, 4.000000, 4.000000, 4.000000
14.000000, 0.000000, 4363.076660, 4234.871582, 4027.179443, 4134.871582, 4107.692383, 450.000000, 8157.000000, 8355.000000, 0.000000, 0.000000, 0.000000, 3.000000, 514.900002, 1557648614.744262, 4.000000, 4.000000, 4.000000, 4.000000, 4.000000
15.000000, 0.000000, 4356.410156, 4234.358887, 4026.153809, 4137.436035, 4118.461426, 16179.000000, 8152.000000, 8354.000000, 0.000000, 0.000000, 0.000000, 3.000000, 522.599998, 1557648614.751962, 4.000000, 4.000000, 4.000000, 4.000000, 4.000000
16.000000, 0.000000, 4345.641113, 4221.538574, 4016.410156, 4135.897461, 4082.563965, 0.000000, 8149.000000, 8357.000000, 0.000000, 0.000000, 0.000000, 3.000000, 530.300003, 1557648614.759662, 4.000000, 4.000000, 4.000000, 4.000000, 4.000000
17.000000, 0.000000, 4339.487305, 4213.846191, 4009.743408, 4130.256348, 4097.436035, 0.000000, 8152.000000, 8359.000000, 0.000000, 0.000000, 0.000000, 3.000000, 538.099998, 1557648614.767462, 4.000000, 4.000000, 4.000000, 4.000000, 4.000000
18.000000, 0.000000, 4338.974121, 4215.897461, 4013.333252, 4127.692383, 4125.127930, 0.000000, 8153.000000, 8352.000000, 0.000000, 0.000000, 0.000000, 3.000000, 546.000000, 1557648614.775362, 4.000000, 4.000000, 4.000000, 4.000000, 4.000000
19.000000, 0.000000, 4341.538574, 4221.538574, 4021.538330, 4126.153809, 4118.974121, 0.000000, 8153.000000, 8349.000000, 0.000000, 0.000000, 0.000000, 3.000000, 554.000000, 1557648614.783362, 4.000000, 4.000000, 4.000000, 4.000000, 4.000000
20.000000, 0.000000, 4347.692383, 4240.512695, 4033.333252, 4130.256348, 4121.538574, 0.000000, 8143.000000, 8359.000000, 0.000000, 0.000000, 0.000000, 3.000000, 561.900002, 1557648614.791262, 4.000000, 4.000000, 4.000000, 4.000000, 4.000000
21.000000, 0.000000, 4357.435547, 4258.461426, 4042.563965, 4140.000000, 4129.230469, 0.000000, 8146.000000, 8356.000000, 0.000000, 0.000000, 0.000000, 3.000000, 569.899994, 1557648614.799262, 4.000000, 4.000000, 4.000000, 4.000000, 4.000000
22.000000, 0.000000, 4356.922852, 4257.436035, 4038.461426, 4136.922852, 4124.102539, 0.000000, 8146.000000, 8348.000000, 0.000000, 0.000000, 0.000000, 3.000000, 577.800003, 1557648614.807162, 4.000000, 4.000000, 4.000000, 4.000000, 4.000000
23.000000, 0.000000, 4343.076660, 4248.205078, 4027.179443, 4121.538574, 4108.717773, 0.000000, 8145.000000, 8357.000000, 0.000000, 0.000000, 0.000000, 3.000000, 585.800003, 1557648614.815162, 4.000000, 4.000000, 4.000000, 4.000000, 4.000000
24.000000, 0.000000, 4331.281738, 4236.922852, 4020.000000, 4115.384277, 4101.025391, 0.000000, 8145.000000, 8360.000000, 0.000000, 0.000000, 0.000000, 3.000000, 593.500000, 1557648614.822862, 4.000000, 4.000000, 4.000000, 4.000000, 4.000000
25.000000, 0.000000, 4318.461426, 4218.974121, 4008.717773, 4125.641113, 4091.794678, 0.000000, 8143.000000, 8347.000000, 0.000000, 0.000000, 0.000000, 3.000000, 601.300003, 1557648614.830662, 4.000000, 4.000000, 4.000000, 4.000000, 4.000000
26.000000, 0.000000, 4304.102539, 4214.358887, 4004.102539, 4129.743652, 4081.538330, 0.000000, 8144.000000, 8347.000000, 0.000000, 0.000000, 0.000000, 3.000000, 609.100006, 1557648614.838462, 4.000000, 4.000000, 4.000000, 4.000000, 4.000000
27.000000, 0.000000, 4294.358887, 4216.922852, 4021.025635, 4116.410156, 4083.589600, 0.000000, 8140.000000, 8353.000000, 0.000000, 0.000000, 0.000000, 3.000000, 616.899994, 1557648614.846262, 4.000000, 4.000000, 4.000000, 4.000000, 4.000000
28.000000, 0.000000, 4293.333008, 4211.794922, 4027.692139, 4114.358887, 4094.358887, 0.000000, 8145.000000, 8348.000000, 0.000000, 0.000000, 0.000000, 3.000000, 624.899994, 1557648614.854262, 4.000000, 4.000000, 4.000000, 4.000000, 4.000000
29.000000, 0.000000, 4310.769043, 4231.281738, 4017.948730, 4131.794922, 4120.000000, 0.000000, 8146.000000, 8347.000000, 0.000000, 0.000000, 0.000000, 3.000000, 632.800003, 1557648614.862162, 4.000000, 4.000000, 4.000000, 4.000000, 4.000000
30.000000, 0.000000, 4327.692383, 4256.410156, 4020.000000, 4138.974121, 4143.589844, 0.000000, 8139.000000, 8348.000000, 0.000000, 0.000000, 0.000000, 3.000000, 640.800003, 1557648614.870162, 4.000000, 4.000000, 4.000000, 4.000000, 4.000000
31.000000, 0.000000, 4323.076660, 4247.692383, 4035.897217, 4133.333008, 4144.615234, 0.000000, 8145.000000, 8344.000000, 0.000000, 0.000000, 0.000000, 3.000000, 648.699997, 1557648614.878062, 4.000000, 4.000000, 4.000000, 4.000000, 4.000000
32.000000, 0.000000, 4321.538574, 4247.179199, 4041.538330, 4129.743652, 4150.769043, 0.000000, 8141.000000, 8338.000000, 0.000000, 0.000000, 0.000000, 3.000000, 656.699997, 1557648614.886062, 4.000000, 4.000000, 4.000000, 4.000000, 4.000000
33.000000, 0.000000, 4326.153809, 4261.538574, 4028.717773, 4133.333008, 4165.641113, 0.000000, 8134.000000, 8350.000000, 0.000000, 0.000000, 0.000000, 3.000000, 664.399994, 1557648614.893762, 4.000000, 4.000000, 4.000000, 4.000000, 4.000000
34.000000, 0.000000, 4318.974121, 4254.358887, 4017.948730, 4138.461426, 4157.948730, 0.000000, 8142.000000, 8344.000000, 0.000000, 0.000000, 0.000000, 3.000000, 672.199997, 1557648614.901562, 4.000000, 4.000000, 4.000000, 4.000000, 4.000000
35.000000, 0.000000, 4304.615234, 4242.563965, 4022.051270, 4134.871582, 4152.307617, 0.000000, 8138.000000, 8336.000000, 0.000000, 0.000000, 0.000000, 3.000000, 680.100006, 1557648614.909462, 4.000000, 4.000000, 4.000000, 4.000000, 4.000000
36.000000, 0.000000, 4303.076660, 4248.717773, 4031.794678, 4134.871582, 4143.076660, 0.000000, 8147.000000, 8325.000000, 0.000000, 0.000000, 0.000000, 3.000000, 688.000000, 1557648614.917362, 4.000000, 4.000000, 4.000000, 4.000000, 4.000000
37.000000, 0.000000, 4298.974121, 4237.436035, 4033.333252, 4137.948730, 4064.615234, 0.000000, 8146.000000, 8337.000000, 0.000000, 0.000000, 0.000000, 3.000000, 696.000000, 1557648614.925362, 4.000000, 4.000000, 4.000000, 4.000000, 4.000000
38.000000, 0.000000, 4279.487305, 4212.307617, 4021.025635, 4134.358887, 3978.461426, 0.000000, 8141.000000, 8328.000000, 0.000000, 0.000000, 0.000000, 3.000000, 703.899994, 1557648614.933262, 4.000000, 4.000000, 4.000000, 4.000000, 4.000000
39.000000, 0.000000, 4273.846191, 4212.307617, 4012.820313, 4135.897461, 3974.358887, 0.000000, 8149.000000, 8337.000000, 0.000000, 0.000000, 0.000000, 3.000000, 711.899994, 1557648614.941262, 4.000000, 4.000000, 4.000000, 4.000000, 4.000000
40.000000, 0.000000, 4284.615234, 4224.102539, 4024.615234, 4139.487305, 4002.051270, 0.000000, 8143.000000, 8347.000000, 0.000000, 0.000000, 0.000000, 3.000000, 719.799988, 1557648614.949162, 4.000000, 4.000000, 4.000000, 4.000000, 4.000000
41.000000, 0.000000, 4290.256348, 4228.717773, 4036.410156, 4134.871582, 4007.179443, 0.000000, 8146.000000, 8341.000000, 0.000000, 0.000000, 0.000000, 3.000000, 727.600006, 1557648614.956962, 4.000000, 4.000000, 4.000000, 4.000000, 4.000000
42.000000, 0.000000, 4288.205078, 4230.769043, 4044.102539, 4128.717773, 4015.384521, 0.000000, 8154.000000, 8341.000000, 0.000000, 0.000000, 0.000000, 3.000000, 735.299988, 1557648614.964662, 4.000000, 4.000000, 4.000000, 4.000000, 4.000000
43.000000, 0.000000, 4289.743652, 4229.230469, 4068.717773, 4133.333008, 4033.333252, 0.000000, 8147.000000, 8340.000000, 0.000000, 0.000000, 0.000000, 3.000000, 743.100006, 1557648614.972462, 4.000000, 4.000000, 4.000000, 4.000000, 4.000000
44.000000, 0.000000, 4288.717773, 4220.512695, 4082.563965, 4133.846191, 4036.410156, 0.000000, 8151.000000, 8338.000000, 0.000000, 0.000000, 0.000000, 3.000000, 751.000000, 1557648614.980362, 4.000000, 4.000000, 4.000000, 4.000000, 4.000000
45.000000, 0.000000, 4275.897461, 4217.436035, 4080.000000, 4126.666504, 4030.256348, 0.000000, 8149.000000, 8341.000000, 0.000000, 0.000000, 0.000000, 3.000000, 759.000000, 1557648614.988362, 4.000000, 4.000000, 4.000000, 4.000000, 4.000000
46.000000, 0.000000, 4273.333008, 4228.717773, 4093.845947, 4133.333008, 4040.512695, 0.000000, 8146.000000, 8349.000000, 0.000000, 0.000000, 0.000000, 3.000000, 766.899994, 1557648614.996262, 4.000000, 4.000000, 4.000000, 4.000000, 4.000000
47.000000, 0.000000, 4290.769043, 4234.871582, 4097.436035, 4147.692383, 4068.205078, 0.000000, 8140.000000, 8350.000000, 0.000000, 0.000000, 0.000000, 3.000000, 774.799988, 1557648615.004162, 4.000000, 4.000000, 4.000000, 4.000000, 4.000000
48.000000, 0.000000, 4300.000000, 4228.717773, 4077.435791, 4144.615234, 4078.974365, 0.000000, 8136.000000, 8342.000000, 0.000000, 0.000000, 0.000000, 3.000000, 782.799988, 1557648615.012162, 4.000000, 4.000000, 4.000000, 4.000000, 4.000000
49.000000, 0.000000, 4289.230469, 4224.615234, 4075.897217, 4137.436035, 4071.281982, 0.000000, 8139.000000, 8342.000000, 0.000000, 0.000000, 0.000000, 3.000000, 790.500000, 1557648615.019862, 4.000000, 4.000000, 4.000000, 4.000000, 4.000000
50.000000, 0.000000, 4277.948730, 4220.000000, 4082.563965, 4142.563965, 4065.128174, 0.000000, 8138.000000, 8352.000000, 0.000000, 0.000000, 0.000000, 3.000000, 798.299988, 1557648615.027662, 4.000000, 4.000000, 4.000000, 4.000000, 4.000000
51.000000, 0.000000, 4266.153809, 4204.615234, 4065.640869, 4145.127930, 4056.923096, 0.000000, 8134.000000, 8353.000000, 0.000000, 0.000000, 0.000000, 3.000000, 806.000000, 1557648615.035362, 4.000000, 4.000000, 4.000000, 4.000000, 4.000000
52.000000, 0.000000, 4253.333008, 4195.384277, 4055.384521, 4128.205078, 4050.769043, 0.000000, 8137.000000, 8342.000000, 0.000000, 0.000000, 0.000000, 3.000000, 814.000000, 1557648615.043362, 4.000000, 4.000000, 4.000000, 4.000000, 4.000000
53.000000, 0.000000, 4253.846191, 4206.666504, 4066.153809, 4119.487305, 4060.000000, 0.000000, 8132.000000, 8354.000000, 0.000000, 0.000000, 0.000000, 3.000000, 821.899994, 1557648615.051262, 4.000000, 4.000000, 4.000000, 4.000000, 4.000000
54.000000, 0.000000, 4257.436035, 4216.922852, 4065.128174, 4131.281738, 4071.794678, 0.000000, 8129.000000, 8352.000000, 0.000000, 0.000000, 0.000000, 3.000000, 829.899994, 1557648615.059262, 4.000000, 4.000000, 4.000000, 4.000000, 4.000000
55.000000, 0.000000, 4257.948730, 4217.436035, 4055.897217, 4142.563965, 4082.051270, 0.000000, 8127.000000, 8349.000000, 0.000000, 0.000000, 0.000000, 3.000000, 837.799988, 1557648615.067162, 4.000000, 4.000000, 4.000000, 4.000000, 4.000000
56.000000, 0.000000, 4257.436035, 4217.436035, 4065.640869, 4146.153809, 4093.333252, 0.000000, 8124.000000, 8349.000000, 0.000000, 0.000000, 0.000000, 3.000000, 845.700012, 1557648615.075062, 4.000000, 4.000000, 4.000000, 4.000000, 4.000000
57.000000, 0.000000, 4243.589844, 4215.384277, 4078.461426, 4141.025391, 4095.384521, 0.000000, 8130.000000, 8354.000000, 0.000000, 0.000000, 0.000000, 3.000000, 853.700012, 1557648615.083062, 4.000000, 4.000000, 4.000000, 4.000000, 4.000000
58.000000, 0.000000, 4236.922852, 4211.794922, 4064.102539, 4134.871582, 4093.333252, 0.000000, 8132.000000, 8352.000000, 0.000000, 0.000000, 0.000000, 3.000000, 861.600006, 1557648615.090962, 4.000000, 4.000000, 4.000000, 4.000000, 4.000000
