title:rishi friend flat sad 1, recorded:12.05.19 15.23.03, timestamp started:2019-05-12T15:23:03.902489+05:30, sampling:128, subject:, labels:COUNTER INTERPOLATED AF3 T7 Pz T8 AF4 RAW_CQ GYROX GYROY MARKER MARKER_HARDWARE SYNC TIME_STAMP_s TIME_STAMP_ms TimeStamp CQ_AF3 CQ_T7 CQ_Pz CQ_T8 CQ_AF4, chan:20, samples:15664, units:emotiv
43.000000, 0.000000, 4323.589844, 3980.512695, 4155.897461, 4171.794922, 3992.820313, 0.000000, 8144.000000, 8353.000000, 1.000000, 1.000000, 0.000000, 0.000000, 0.000000, 1557654783.902490, 4.000000, 4.000000, 1.000000, 4.000000, 4.000000
44.000000, 0.000000, 4308.717773, 3958.461426, 4208.717773, 4161.538574, 3989.743408, 0.000000, 8141.000000, 8347.000000, 0.000000, 0.000000, 0.000000, 0.000000, 7.799988, 1557654783.910290, 4.000000, 4.000000, 1.000000, 4.000000, 4.000000
45.000000, 0.000000, 4290.769043, 3973.333252, 4257.948730, 4183.589844, 3980.000000, 0.000000, 8144.000000, 8349.000000, 0.000000, 0.000000, 0.000000, 0.000000, 15.599991, 1557654783.918090, 4.000000, 4.000000, 1.000000, 4.000000, 4.000000
46.000000, 0.000000, 4288.717773, 4011.794678, 4169.743652, 4180.000000, 3959.487061, 0.000000, 8145.000000, 8347.000000, 0.000000, 0.000000, 0.000000, 0.000000, 23.399994, 1557654783.925890, 4.000000, 4.000000, 1.000000, 4.000000, 4.000000
47.000000, 0.000000, 4306.666504, 3986.153809, 4198.461426, 4152.307617, 3982.563965, 0.000000, 8145.000000, 8352.000000, 0.000000, 0.000000, 0.000000, 0.000000, 31.399994, 1557654783.933890, 4.000000, 4.000000, 1.000000, 4.000000, 4.000000
48.000000, 0.000000, 4307.179199, 3948.205078, 4106.153809, 4147.692383, 3991.794678, 0.000000, 8149.000000, 8347.000000, 0.000000, 0.000000, 0.000000, 0.000000, 39.399994, 1557654783.941890, 4.000000, 4.000000, 1.000000, 4.000000, 4.000000
49.000000, 0.000000, 4285.641113, 3973.845947, 4174.358887, 4158.974121, 3954.871582, 0.000000, 8154.000000, 8340.000000, 0.000000, 0.000000, 0.000000, 0.000000, 47.399994, 1557654783.949890, 4.000000, 4.000000, 1.000000, 4.000000, 4.000000
50.000000, 0.000000, 4296.922852, 4003.589600, 4272.820313, 4125.641113, 3958.461426, 0.000000, 8152.000000, 8339.000000, 0.000000, 0.000000, 0.000000, 0.000000, 55.199997, 1557654783.957690, 4.000000, 4.000000, 1.000000, 4.000000, 4.000000
51.000000, 0.000000, 4312.307617, 3977.435791, 4153.846191, 4094.358887, 3991.794678, 0.000000, 8149.000000, 8352.000000, 0.000000, 0.000000, 0.000000, 0.000000, 62.899994, 1557654783.965390, 4.000000, 4.000000, 1.000000, 4.000000, 4.000000
52.000000, 0.000000, 4303.589844, 3942.051270, 4165.127930, 4142.563965, 3996.923096, 0.000000, 8155.000000, 8347.000000, 0.000000, 0.000000, 0.000000, 0.000000, 70.699997, 1557654783.973190, 4.000000, 4.000000, 1.000000, 4.000000, 4.000000
53.000000, 0.000000, 4317.948730, 3956.410156, 4129.743652, 4180.512695, 3991.281982, 0.000000, 8155.000000, 8340.000000, 0.000000, 0.000000, 0.000000, 0.000000, 78.500000, 1557654783.980990, 4.000000, 4.000000, 1.000000, 4.000000, 4.000000
54.000000, 0.000000, 4328.205078, 4000.512695, 4197.436035, 4150.256348, 3984.102539, 0.000000, 8153.000000, 8354.000000, 0.000000, 0.000000, 0.000000, 0.000000, 86.500000, 1557654783.988990, 4.000000, 4.000000, 1.000000, 4.000000, 4.000000
55.000000, 0.000000, 4291.281738, 4017.948730, 4272.307617, 4140.512695, 3966.153809, 0.000000, 8153.000000, 8346.000000, 0.000000, 0.000000, 0.000000, 0.000000, 94.500000, 1557654783.996990, 4.000000, 4.000000, 1.000000, 4.000000, 4.000000
56.000000, 0.000000, 4275.897461, 3980.000000, 4132.307617, 4161.538574, 3964.102539, 0.000000, 8154.000000, 8338.000000, 0.000000, 0.000000, 0.000000, 0.000000, 102.500000, 1557654784.004990, 4.000000, 4.000000, 1.000000, 4.000000, 4.000000
57.000000, 0.000000, 4303.076660, 3963.076904, 4159.487305, 4148.717773, 3967.692139, 0.000000, 8152.000000, 8338.000000, 0.000000, 0.000000, 0.000000, 0.000000, 110.399994, 1557654784.012890, 4.000000, 4.000000, 1.000000, 4.000000, 4.000000
58.000000, 0.000000, 4308.717773, 4001.025635, 4138.461426, 4132.820313, 3963.589600, 0.000000, 8147.000000, 8339.000000, 0.000000, 0.000000, 0.000000, 0.000000, 118.399994, 1557654784.020890, 4.000000, 4.000000, 1.000000, 4.000000, 4.000000
59.000000, 0.000000, 4302.051270, 4012.820313, 4160.000000, 4156.410156, 3968.205078, 0.000000, 8149.000000, 8341.000000, 0.000000, 0.000000, 0.000000, 0.000000, 126.199982, 1557654784.028690, 4.000000, 4.000000, 1.000000, 4.000000, 4.000000
60.000000, 0.000000, 4311.281738, 4008.717773, 4224.102539, 4147.692383, 3955.384521, 0.000000, 8143.000000, 8346.000000, 0.000000, 0.000000, 0.000000, 0.000000, 134.000000, 1557654784.036490, 4.000000, 4.000000, 1.000000, 4.000000, 4.000000
61.000000, 0.000000, 4298.974121, 4022.051270, 4080.512695, 4095.897217, 3928.717773, 0.000000, 8146.000000, 8343.000000, 0.000000, 0.000000, 0.000000, 0.000000, 141.799988, 1557654784.044290, 4.000000, 4.000000, 1.000000, 4.000000, 4.000000
62.000000, 0.000000, 4281.025391, 4029.743408, 4127.179199, 4110.256348, 3930.256348, 0.000000, 8143.000000, 8340.000000, 0.000000, 0.000000, 0.000000, 0.000000, 149.500000, 1557654784.051990, 4.000000, 4.000000, 1.000000, 4.000000, 4.000000
63.000000, 0.000000, 4301.538574, 4047.692139, 4175.897461, 4154.358887, 3952.820313, 0.000000, 8140.000000, 8346.000000, 0.000000, 0.000000, 0.000000, 0.000000, 157.500000, 1557654784.059990, 4.000000, 4.000000, 1.000000, 4.000000, 4.000000
64.000000, 0.000000, 4314.358887, 4072.820313, 4189.743652, 4117.436035, 3958.461426, 500.000000, 8136.000000, 8358.000000, 0.000000, 0.000000, 0.000000, 0.000000, 165.500000, 1557654784.067990, 4.000000, 4.000000, 1.000000, 4.000000, 4.000000
65.000000, 0.000000, 4301.538574, 4075.384521, 4222.051270, 4070.256348, 3953.333252, 500.000000, 8139.000000, 8359.000000, 0.000000, 0.000000, 0.000000, 0.000000, 173.500000, 1557654784.075990, 4.000000, 4.000000, 1.000000, 4.000000, 4.000000
66.000000, 0.000000, 4306.666504, 4067.692139, 4077.948730, 4067.692139, 3958.974365, 16195.000000, 8134.000000, 8350.000000, 0.000000, 0.000000, 0.000000, 0.000000, 181.500000, 1557654784.083990, 4.000000, 4.000000, 1.000000, 4.000000, 4.000000
67.000000, 0.000000, 4312.307617, 4066.153809, 4141.025391, 4072.820313, 3955.384521, 500.000000, 8129.000000, 8357.000000, 0.000000, 0.000000, 0.000000, 0.000000, 189.299988, 1557654784.091790, 4.000000, 4.000000, 1.000000, 4.000000, 4.000000
68.000000, 0.000000, 4296.410156, 4074.871582, 4188.205078, 4082.563965, 3938.461426, 318.000000, 8137.000000, 8357.000000, 0.000000, 0.000000, 0.000000, 0.000000, 197.000000, 1557654784.099490, 4.000000, 2.000000, 1.000000, 4.000000, 4.000000
69.000000, 0.000000, 4297.948730, 4109.743652, 4152.820313, 4096.410156, 3938.461426, 500.000000, 8132.000000, 8344.000000, 0.000000, 0.000000, 0.000000, 0.000000, 204.799988, 1557654784.107290, 4.000000, 2.000000, 1.000000, 4.000000, 4.000000
70.000000, 0.000000, 4306.666504, 4144.615234, 4207.692383, 4110.256348, 3940.512695, 186.000000, 8136.000000, 8350.000000, 0.000000, 0.000000, 0.000000, 0.000000, 212.600006, 1557654784.115090, 4.000000, 2.000000, 2.000000, 4.000000, 4.000000
71.000000, 0.000000, 4288.205078, 4137.436035, 4106.666504, 4128.205078, 3928.717773, 500.000000, 8133.000000, 8351.000000, 0.000000, 0.000000, 0.000000, 0.000000, 220.600006, 1557654784.123090, 4.000000, 2.000000, 2.000000, 4.000000, 4.000000
72.000000, 0.000000, 4283.589844, 4130.769043, 4173.846191, 4124.615234, 3909.230713, 500.000000, 8133.000000, 8349.000000, 0.000000, 0.000000, 0.000000, 0.000000, 228.500000, 1557654784.130990, 4.000000, 2.000000, 2.000000, 4.000000, 4.000000
73.000000, 0.000000, 4293.846191, 4137.948730, 4229.230469, 4116.922852, 3886.666504, 16125.000000, 8129.000000, 8351.000000, 0.000000, 0.000000, 0.000000, 0.000000, 236.399994, 1557654784.138890, 4.000000, 2.000000, 2.000000, 4.000000, 4.000000
74.000000, 0.000000, 4280.000000, 4143.589844, 4145.641113, 4144.615234, 3886.666504, 500.000000, 8137.000000, 8347.000000, 0.000000, 0.000000, 0.000000, 0.000000, 244.399994, 1557654784.146890, 4.000000, 2.000000, 2.000000, 4.000000, 4.000000
75.000000, 0.000000, 4281.025391, 4155.384277, 4193.333008, 4165.127930, 3907.179443, 16190.000000, 8144.000000, 8350.000000, 0.000000, 0.000000, 0.000000, 0.000000, 252.199982, 1557654784.154690, 4.000000, 2.000000, 2.000000, 4.000000, 4.000000
76.000000, 0.000000, 4294.871582, 4152.307617, 4128.717773, 4129.230469, 3888.205078, 500.000000, 8143.000000, 8344.000000, 0.000000, 0.000000, 0.000000, 0.000000, 260.000000, 1557654784.162490, 4.000000, 2.000000, 2.000000, 4.000000, 4.000000
77.000000, 0.000000, 4284.102539, 4143.589844, 4186.666504, 4120.000000, 3843.589600, 500.000000, 8142.000000, 8348.000000, 0.000000, 0.000000, 0.000000, 0.000000, 267.799988, 1557654784.170290, 4.000000, 2.000000, 2.000000, 4.000000, 4.000000
78.000000, 0.000000, 4276.922852, 4156.410156, 4243.589844, 4154.358887, 3842.563965, 450.000000, 8154.000000, 8349.000000, 0.000000, 0.000000, 0.000000, 0.000000, 275.500000, 1557654784.177990, 4.000000, 2.000000, 2.000000, 4.000000, 4.000000
79.000000, 0.000000, 4291.281738, 4163.076660, 4154.358887, 4169.230469, 3873.333252, 16190.000000, 8151.000000, 8335.000000, 0.000000, 0.000000, 0.000000, 0.000000, 283.500000, 1557654784.185990, 4.000000, 2.000000, 2.000000, 4.000000, 4.000000
80.000000, 0.000000, 4307.179199, 4158.461426, 4201.538574, 4209.230469, 3885.128174, 450.000000, 8149.000000, 8336.000000, 0.000000, 0.000000, 0.000000, 0.000000, 291.500000, 1557654784.193990, 4.000000, 2.000000, 2.000000, 4.000000, 4.000000
81.000000, 0.000000, 4309.230469, 4190.256348, 4140.000000, 4224.102539, 3858.461426, 450.000000, 8154.000000, 8345.000000, 0.000000, 0.000000, 0.000000, 0.000000, 299.500000, 1557654784.201990, 4.000000, 2.000000, 2.000000, 4.000000, 4.000000
82.000000, 0.000000, 4302.051270, 4228.205078, 4194.871582, 4170.769043, 3844.102539, 450.000000, 8150.000000, 8334.000000, 0.000000, 0.000000, 0.000000, 0.000000, 307.500000, 1557654784.209990, 4.000000, 2.000000, 2.000000, 4.000000, 4.000000
83.000000, 0.000000, 4308.717773, 4235.897461, 4272.307617, 4166.153809, 3857.435791, 16190.000000, 8152.000000, 8337.000000, 0.000000, 0.000000, 0.000000, 0.000000, 315.500000, 1557654784.217990, 4.000000, 2.000000, 2.000000, 4.000000, 4.000000
84.000000, 0.000000, 4318.461426, 4238.974121, 4140.512695, 4228.717773, 3847.692139, 450.000000, 8148.000000, 8340.000000, 0.000000, 0.000000, 0.000000, 0.000000, 323.199982, 1557654784.225690, 4.000000, 2.000000, 2.000000, 4.000000, 4.000000
85.000000, 0.000000, 4304.615234, 4243.076660, 4164.102539, 4269.230469, 3830.256348, 450.000000, 8149.000000, 8339.000000, 0.000000, 0.000000, 0.000000, 0.000000, 331.000000, 1557654784.233490, 4.000000, 2.000000, 2.000000, 4.000000, 4.000000
86.000000, 0.000000, 4293.333008, 4238.974121, 4150.769043, 4252.307617, 3843.589600, 450.000000, 8145.000000, 8343.000000, 0.000000, 0.000000, 0.000000, 0.000000, 338.799988, 1557654784.241290, 4.000000, 2.000000, 2.000000, 4.000000, 4.000000
87.000000, 0.000000, 4308.717773, 4246.153809, 4204.615234, 4257.948730, 3853.845947, 16190.000000, 8145.000000, 8344.000000, 0.000000, 0.000000, 0.000000, 0.000000, 346.600006, 1557654784.249090, 4.000000, 2.000000, 2.000000, 4.000000, 4.000000
88.000000, 0.000000, 4340.000000, 4270.769043, 4280.000000, 4289.230469, 3855.384521, 450.000000, 8151.000000, 8347.000000, 0.000000, 0.000000, 0.000000, 0.000000, 354.600006, 1557654784.257090, 4.000000, 2.000000, 2.000000, 4.000000, 4.000000
89.000000, 0.000000, 4367.179199, 4287.179199, 4150.769043, 4309.230469, 3873.845947, 450.000000, 8146.000000, 8338.000000, 0.000000, 0.000000, 0.000000, 0.000000, 362.500000, 1557654784.264990, 4.000000, 2.000000, 2.000000, 4.000000, 4.000000
90.000000, 0.000000, 4373.333008, 4289.743652, 4182.051270, 4338.461426, 3880.000000, 450.000000, 8145.000000, 8344.000000, 0.000000, 0.000000, 0.000000, 0.000000, 370.500000, 1557654784.272990, 4.000000, 2.000000, 2.000000, 4.000000, 4.000000
91.000000, 0.000000, 4380.000000, 4309.230469, 4175.897461, 4342.051270, 3860.512695, 16190.000000, 8145.000000, 8346.000000, 0.000000, 0.000000, 0.000000, 0.000000, 378.300018, 1557654784.280790, 4.000000, 2.000000, 2.000000, 4.000000, 4.000000
92.000000, 0.000000, 4387.179199, 4338.461426, 4185.127930, 4316.922852, 3846.153809, 450.000000, 8144.000000, 8337.000000, 0.000000, 0.000000, 0.000000, 0.000000, 386.100006, 1557654784.288590, 4.000000, 2.000000, 2.000000, 4.000000, 4.000000
93.000000, 0.000000, 4382.563965, 4345.127930, 4231.794922, 4326.666504, 3856.923096, 450.000000, 8150.000000, 8336.000000, 0.000000, 0.000000, 0.000000, 0.000000, 393.899994, 1557654784.296390, 4.000000, 2.000000, 2.000000, 4.000000, 4.000000
94.000000, 0.000000, 4379.487305, 4352.820313, 4082.051270, 4366.153809, 3870.256348, 450.000000, 8139.000000, 8344.000000, 0.000000, 0.000000, 0.000000, 0.000000, 401.699982, 1557654784.304190, 4.000000, 2.000000, 2.000000, 4.000000, 4.000000
95.000000, 0.000000, 4394.358887, 4360.512695, 4140.512695, 4377.435547, 3872.307617, 16190.000000, 8147.000000, 8346.000000, 0.000000, 0.000000, 0.000000, 0.000000, 409.600006, 1557654784.312090, 4.000000, 2.000000, 2.000000, 4.000000, 4.000000
96.000000, 0.000000, 4409.230469, 4338.461426, 4180.512695, 4362.563965, 3877.435791, 450.000000, 8144.000000, 8341.000000, 0.000000, 0.000000, 0.000000, 0.000000, 417.399994, 1557654784.319890, 4.000000, 2.000000, 2.000000, 4.000000, 4.000000
97.000000, 0.000000, 4406.153809, 4333.333008, 4146.666504, 4367.179199, 3872.820313, 450.000000, 8148.000000, 8346.000000, 0.000000, 0.000000, 0.000000, 0.000000, 425.399994, 1557654784.327890, 4.000000, 2.000000, 2.000000, 4.000000, 4.000000
98.000000, 0.000000, 4414.358887, 4373.333008, 4187.692383, 4392.820313, 3864.102539, 450.000000, 8149.000000, 8349.000000, 0.000000, 0.000000, 0.000000, 0.000000, 433.399994, 1557654784.335890, 4.000000, 2.000000, 2.000000, 4.000000, 4.000000
99.000000, 0.000000, 4427.179199, 4410.769043, 4069.230713, 4396.410156, 3865.640869, 16190.000000, 8145.000000, 8349.000000, 0.000000, 0.000000, 0.000000, 0.000000, 441.399994, 1557654784.343890, 4.000000, 2.000000, 2.000000, 4.000000, 4.000000
100.000000, 0.000000, 4435.897461, 4413.846191, 4134.871582, 4381.538574, 3877.435791, 450.000000, 8145.000000, 8353.000000, 0.000000, 0.000000, 0.000000, 0.000000, 449.100006, 1557654784.351590, 4.000000, 2.000000, 2.000000, 4.000000, 4.000000
101.000000, 0.000000, 4446.666504, 4391.794922, 4184.615234, 4381.025391, 3882.563965, 450.000000, 8141.000000, 8353.000000, 0.000000, 0.000000, 0.000000, 0.000000, 456.899994, 1557654784.359390, 4.000000, 2.000000, 2.000000, 4.000000, 4.000000
102.000000, 0.000000, 4441.538574, 4392.820313, 4108.717773, 4381.538574, 3867.179443, 450.000000, 8153.000000, 8350.000000, 0.000000, 0.000000, 0.000000, 0.000000, 464.699982, 1557654784.367190, 4.000000, 2.000000, 2.000000, 4.000000, 4.000000
103.000000, 0.000000, 4436.410156, 4437.948730, 4154.358887, 4391.794922, 3852.307617, 16190.000000, 8147.000000, 8362.000000, 0.000000, 0.000000, 0.000000, 0.000000, 472.499969, 1557654784.374990, 4.000000, 2.000000, 2.000000, 4.000000, 4.000000
104.000000, 0.000000, 4442.051270, 4464.102539, 4084.615234, 4387.692383, 3847.692139, 450.000000, 8140.000000, 8357.000000, 0.000000, 0.000000, 0.000000, 0.000000, 480.499969, 1557654784.382990, 4.000000, 2.000000, 2.000000, 4.000000, 4.000000
105.000000, 0.000000, 4449.743652, 4449.743652, 4163.589844, 4377.435547, 3854.358887, 450.000000, 8154.000000, 8349.000000, 0.000000, 0.000000, 0.000000, 0.000000, 488.499969, 1557654784.390990, 4.000000, 2.000000, 2.000000, 4.000000, 4.000000
106.000000, 0.000000, 4454.358887, 4435.384277, 4229.230469, 4393.846191, 3866.666504, 450.000000, 8150.000000, 8352.000000, 0.000000, 0.000000, 0.000000, 0.000000, 496.399994, 1557654784.398890, 4.000000, 2.000000, 2.000000, 4.000000, 4.000000
107.000000, 0.000000, 4446.666504, 4424.102539, 4124.615234, 4398.461426, 3853.845947, 16190.000000, 8144.000000, 8359.000000, 0.000000, 0.000000, 0.000000, 0.000000, 504.399994, 1557654784.406890, 4.000000, 2.000000, 2.000000, 4.000000, 4.000000
108.000000, 0.000000, 4442.563965, 4437.948730, 4161.025391, 4397.948730, 3840.000000, 450.000000, 8149.000000, 8356.000000, 0.000000, 0.000000, 0.000000, 0.000000, 512.199982, 1557654784.414690, 4.000000, 2.000000, 2.000000, 4.000000, 4.000000
109.000000, 0.000000, 4462.051270, 4460.512695, 4115.897461, 4437.435547, 3866.666504, 450.000000, 8147.000000, 8350.000000, 0.000000, 0.000000, 0.000000, 0.000000, 519.999969, 1557654784.422490, 4.000000, 2.000000, 2.000000, 4.000000, 4.000000
110.000000, 0.000000, 4491.281738, 4450.769043, 4177.948730, 4487.692383, 3899.487061, 450.000000, 8145.000000, 8352.000000, 0.000000, 0.000000, 0.000000, 0.000000, 527.800018, 1557654784.430290, 4.000000, 2.000000, 2.000000, 4.000000, 4.000000
111.000000, 0.000000, 4502.563965, 4474.871582, 4236.922852, 4495.384277, 3900.512695, 16190.000000, 8144.000000, 8355.000000, 0.000000, 0.000000, 0.000000, 0.000000, 535.499969, 1557654784.437990, 4.000000, 2.000000, 2.000000, 4.000000, 4.000000
112.000000, 0.000000, 4515.384277, 4510.769043, 4123.076660, 4524.102539, 3909.743408, 450.000000, 8146.000000, 8354.000000, 0.000000, 0.000000, 0.000000, 0.000000, 543.499969, 1557654784.445990, 4.000000, 2.000000, 2.000000, 4.000000, 4.000000
113.000000, 0.000000, 4542.563965, 4501.538574, 4160.512695, 4570.769043, 3930.769043, 450.000000, 8150.000000, 8355.000000, 0.000000, 0.000000, 0.000000, 0.000000, 551.499969, 1557654784.453990, 4.000000, 2.000000, 2.000000, 4.000000, 4.000000
114.000000, 0.000000, 4536.922852, 4517.435547, 4112.307617, 4529.743652, 3904.102539, 450.000000, 8150.000000, 8348.000000, 0.000000, 0.000000, 0.000000, 0.000000, 559.499969, 1557654784.461990, 4.000000, 2.000000, 2.000000, 4.000000, 4.000000
115.000000, 0.000000, 4508.717773, 4544.615234, 4167.692383, 4502.563965, 3881.538330, 16190.000000, 8147.000000, 8351.000000, 0.000000, 0.000000, 0.000000, 0.000000, 567.499969, 1557654784.469990, 4.000000, 2.000000, 2.000000, 4.000000, 4.000000
116.000000, 0.000000, 4501.025391, 4523.076660, 4258.974121, 4548.717773, 3907.692139, 450.000000, 8144.000000, 8357.000000, 0.000000, 0.000000, 0.000000, 0.000000, 575.499969, 1557654784.477990, 4.000000, 2.000000, 2.000000, 4.000000, 4.000000
117.000000, 0.000000, 4496.922852, 4498.974121, 4109.743652, 4541.538574, 3905.128174, 450.000000, 8148.000000, 8354.000000, 0.000000, 0.000000, 0.000000, 0.000000, 583.199982, 1557654784.485690, 4.000000, 2.000000, 2.000000, 4.000000, 4.000000
118.000000, 0.000000, 4498.974121, 4515.384277, 4118.974121, 4518.461426, 3885.128174, 450.000000, 8152.000000, 8347.000000, 0.000000, 0.000000, 0.000000, 0.000000, 590.999969, 1557654784.493490, 4.000000, 2.000000, 2.000000, 4.000000, 4.000000
119.000000, 0.000000, 4513.846191, 4531.281738, 4124.615234, 4536.410156, 3886.666504, 16190.000000, 8145.000000, 8339.000000, 0.000000, 0.000000, 0.000000, 0.000000, 598.800018, 1557654784.501290, 4.000000, 2.000000, 2.000000, 4.000000, 4.000000
120.000000, 0.000000, 4526.666504, 4535.384277, 4168.717773, 4535.384277, 3890.256348, 450.000000, 8153.000000, 8343.000000, 0.000000, 0.000000, 0.000000, 0.000000, 606.699982, 1557654784.509190, 4.000000, 2.000000, 2.000000, 4.000000, 4.000000
121.000000, 0.000000, 4549.743652, 4561.025391, 4236.922852, 4530.769043, 3914.358887, 450.000000, 8149.000000, 8346.000000, 0.000000, 0.000000, 0.000000, 0.000000, 614.499969, 1557654784.516990, 4.000000, 2.000000, 2.000000, 4.000000, 4.000000
122.000000, 0.000000, 4572.820313, 4583.589844, 4097.948730, 4544.102539, 3941.025635, 450.000000, 8151.000000, 8334.000000, 0.000000, 0.000000, 0.000000, 0.000000, 622.399994, 1557654784.524890, 4.000000, 2.000000, 2.000000, 4.000000, 4.000000
123.000000, 0.000000, 4568.205078, 4586.153809, 4131.281738, 4538.461426, 3925.640869, 16190.000000, 8156.000000, 8335.000000, 0.000000, 0.000000, 0.000000, 0.000000, 630.399994, 1557654784.532890, 4.000000, 2.000000, 2.000000, 4.000000, 4.000000
124.000000, 0.000000, 4564.615234, 4578.974121, 4164.615234, 4518.461426, 3914.358887, 450.000000, 8152.000000, 8346.000000, 0.000000, 0.000000, 0.000000, 0.000000, 638.399994, 1557654784.540890, 4.000000, 2.000000, 2.000000, 4.000000, 4.000000
125.000000, 0.000000, 4591.281738, 4574.358887, 4181.025391, 4531.281738, 3941.025635, 450.000000, 8146.000000, 8341.000000, 0.000000, 0.000000, 0.000000, 0.000000, 646.199982, 1557654784.548690, 4.000000, 2.000000, 2.000000, 4.000000, 4.000000
126.000000, 0.000000, 4610.769043, 4604.615234, 4228.205078, 4549.230469, 3950.769043, 450.000000, 8142.000000, 8342.000000, 0.000000, 0.000000, 0.000000, 0.000000, 653.999969, 1557654784.556490, 4.000000, 2.000000, 2.000000, 4.000000, 4.000000
127.000000, 0.000000, 4589.230469, 4641.025391, 4075.384521, 4536.410156, 3930.256348, 16190.000000, 8153.000000, 8343.000000, 0.000000, 0.000000, 0.000000, 0.000000, 661.699982, 1557654784.564190, 4.000000, 2.000000, 2.000000, 4.000000, 4.000000
128.000000, 0.000000, 4569.230469, 4621.538574, 4123.589844, 4526.666504, 3927.692139, 500.000000, 8148.000000, 8341.000000, 0.000000, 0.000000, 0.000000, 0.000000, 669.499969, 1557654784.571990, 4.000000, 2.000000, 2.000000, 4.000000, 4.000000
0.000000, 0.000000, 4581.538574, 4603.589844, 4183.589844, 4545.641113, 3941.538330, 500.000000, 8149.000000, 8347.000000, 0.000000, 0.000000, 0.000000, 0.000000, 677.399994, 1557654784.579890, 4.000000, 2.000000, 2.000000, 4.000000, 4.000000
1.000000, 0.000000, 4591.281738, 4643.589844, 4151.281738, 4596.410156, 3941.025635, 500.000000, 8146.000000, 8351.000000, 0.000000, 0.000000, 0.000000, 0.000000, 685.399994, 1557654784.587890, 4.000000, 2.000000, 2.000000, 4.000000, 4.000000
2.000000, 0.000000, 4593.333008, 4658.461426, 4195.897461, 4632.820313, 3938.974365, 16185.000000, 8147.000000, 8338.000000, 0.000000, 0.000000, 0.000000, 0.000000, 693.399994, 1557654784.595890, 4.000000, 2.000000, 2.000000, 4.000000, 4.000000
3.000000, 0.000000, 4608.717773, 4628.205078, 4077.435791, 4606.666504, 3954.871582, 500.000000, 8145.000000, 8340.000000, 0.000000, 0.000000, 0.000000, 0.000000, 701.399994, 1557654784.603890, 4.000000, 2.000000, 2.000000, 4.000000, 4.000000
4.000000, 0.000000, 4612.307617, 4624.102539, 4125.641113, 4593.846191, 3958.974365, 16071.000000, 8144.000000, 8352.000000, 0.000000, 0.000000, 0.000000, 0.000000, 709.300018, 1557654784.611790, 4.000000, 4.000000, 2.000000, 4.000000, 4.000000
5.000000, 0.000000, 4600.512695, 4629.743652, 4183.589844, 4608.717773, 3946.666504, 500.000000, 8147.000000, 8353.000000, 0.000000, 0.000000, 0.000000, 0.000000, 717.100006, 1557654784.619590, 4.000000, 4.000000, 2.000000, 4.000000, 4.000000
6.000000, 0.000000, 4593.846191, 4621.025391, 4107.692383, 4587.692383, 3952.307617, 180.000000, 8149.000000, 8341.000000, 0.000000, 0.000000, 0.000000, 0.000000, 724.899994, 1557654784.627390, 4.000000, 4.000000, 2.000000, 4.000000, 4.000000
7.000000, 0.000000, 4597.948730, 4632.307617, 4148.205078, 4585.127930, 3971.794678, 500.000000, 8154.000000, 8342.000000, 0.000000, 0.000000, 0.000000, 0.000000, 732.699982, 1557654784.635190, 4.000000, 4.000000, 2.000000, 4.000000, 4.000000
8.000000, 0.000000, 4616.410156, 4660.512695, 4072.820313, 4642.051270, 3978.461426, 500.000000, 8154.000000, 8348.000000, 0.000000, 0.000000, 0.000000, 0.000000, 740.499969, 1557654784.642990, 4.000000, 4.000000, 2.000000, 4.000000, 4.000000
9.000000, 0.000000, 4632.820313, 4661.025391, 4144.615234, 4680.512695, 3985.128174, 16085.000000, 8158.000000, 8343.000000, 0.000000, 0.000000, 0.000000, 0.000000, 748.399994, 1557654784.650890, 4.000000, 4.000000, 2.000000, 4.000000, 4.000000
10.000000, 0.000000, 4630.256348, 4643.589844, 4228.717773, 4673.846191, 4005.640869, 500.000000, 8158.000000, 8347.000000, 0.000000, 0.000000, 0.000000, 0.000000, 756.399994, 1557654784.658890, 4.000000, 4.000000, 2.000000, 4.000000, 4.000000
11.000000, 0.000000, 4634.871582, 4646.666504, 4127.692383, 4658.461426, 4010.769043, 16174.000000, 8159.000000, 8350.000000, 0.000000, 0.000000, 0.000000, 0.000000, 764.199982, 1557654784.666690, 4.000000, 4.000000, 2.000000, 4.000000, 4.000000
12.000000, 0.000000, 4656.922852, 4673.333008, 4147.692383, 4640.512695, 4011.281982, 500.000000, 8159.000000, 8345.000000, 0.000000, 0.000000, 0.000000, 0.000000, 772.199982, 1557654784.674690, 4.000000, 4.000000, 2.000000, 4.000000, 4.000000
13.000000, 0.000000, 4649.230469, 4680.512695, 4091.794678, 4631.281738, 4014.871582, 500.000000, 8154.000000, 8349.000000, 0.000000, 0.000000, 0.000000, 0.000000, 779.999969, 1557654784.682490, 4.000000, 4.000000, 2.000000, 4.000000, 4.000000
14.000000, 0.000000, 4630.256348, 4649.230469, 4167.179199, 4655.384277, 4002.051270, 450.000000, 8156.000000, 8347.000000, 0.000000, 0.000000, 0.000000, 0.000000, 787.800018, 1557654784.690290, 4.000000, 4.000000, 2.000000, 4.000000, 4.000000
15.000000, 0.000000, 4645.127930, 4648.205078, 4262.563965, 4649.230469, 3990.256348, 16174.000000, 8164.000000, 8336.000000, 0.000000, 0.000000, 0.000000, 0.000000, 795.600006, 1557654784.698090, 4.000000, 4.000000, 2.000000, 4.000000, 4.000000
16.000000, 0.000000, 4653.333008, 4691.281738, 4128.717773, 4615.897461, 4002.051270, 0.000000, 8166.000000, 8339.000000, 0.000000, 0.000000, 0.000000, 0.000000, 803.499969, 1557654784.705990, 4.000000, 4.000000, 2.000000, 4.000000, 4.000000
17.000000, 0.000000, 4640.512695, 4709.743652, 4140.000000, 4650.769043, 4011.281982, 0.000000, 8158.000000, 8349.000000, 0.000000, 0.000000, 0.000000, 0.000000, 811.499969, 1557654784.713990, 4.000000, 4.000000, 2.000000, 4.000000, 4.000000
18.000000, 0.000000, 4645.127930, 4684.615234, 4132.307617, 4674.358887, 4002.051270, 0.000000, 8152.000000, 8351.000000, 0.000000, 0.000000, 0.000000, 0.000000, 819.499969, 1557654784.721990, 4.000000, 4.000000, 2.000000, 4.000000, 4.000000
19.000000, 0.000000, 4653.333008, 4674.358887, 4187.692383, 4630.256348, 3992.820313, 0.000000, 8155.000000, 8340.000000, 0.000000, 0.000000, 0.000000, 0.000000, 827.499969, 1557654784.729990, 4.000000, 4.000000, 2.000000, 4.000000, 4.000000
20.000000, 0.000000, 4637.435547, 4701.025391, 4242.051270, 4621.538574, 3982.563965, 0.000000, 8146.000000, 8341.000000, 0.000000, 0.000000, 0.000000, 0.000000, 835.399994, 1557654784.737890, 4.000000, 4.000000, 2.000000, 4.000000, 4.000000
21.000000, 0.000000, 4628.205078, 4725.127930, 4092.307617, 4624.102539, 3990.769043, 0.000000, 8146.000000, 8357.000000, 0.000000, 0.000000, 0.000000, 0.000000, 843.199982, 1557654784.745690, 4.000000, 4.000000, 2.000000, 4.000000, 4.000000
22.000000, 0.000000, 4635.384277, 4715.897461, 4138.461426, 4599.487305, 4007.179443, 0.000000, 8145.000000, 8358.000000, 0.000000, 0.000000, 0.000000, 0.000000, 850.999969, 1557654784.753490, 4.000000, 4.000000, 2.000000, 4.000000, 4.000000
23.000000, 0.000000, 4627.692383, 4711.794922, 4149.230469, 4615.897461, 3997.435791, 0.000000, 8139.000000, 8360.000000, 0.000000, 0.000000, 0.000000, 0.000000, 858.800018, 1557654784.761290, 4.000000, 4.000000, 2.000000, 4.000000, 4.000000
24.000000, 0.000000, 4615.897461, 4743.076660, 4158.461426, 4647.179199, 3999.487061, 0.000000, 8133.000000, 8359.000000, 0.000000, 0.000000, 0.000000, 0.000000, 866.599994, 1557654784.769090, 4.000000, 4.000000, 2.000000, 4.000000, 4.000000
25.000000, 0.000000, 4623.589844, 4753.333008, 4235.384277, 4632.820313, 4027.692139, 0.000000, 8134.000000, 8360.000000, 0.000000, 0.000000, 0.000000, 0.000000, 874.499994, 1557654784.776990, 4.000000, 4.000000, 2.000000, 4.000000, 4.000000
26.000000, 0.000000, 4627.179199, 4737.948730, 4099.487305, 4627.692383, 4021.025635, 0.000000, 8133.000000, 8356.000000, 0.000000, 0.000000, 0.000000, 0.000000, 882.399994, 1557654784.784890, 4.000000, 4.000000, 2.000000, 4.000000, 4.000000
27.000000, 0.000000, 4621.025391, 4760.512695, 4127.692383, 4653.846191, 3997.948730, 0.000000, 8123.000000, 8361.000000, 0.000000, 0.000000, 0.000000, 0.000000, 890.399994, 1557654784.792890, 4.000000, 4.000000, 2.000000, 4.000000, 4.000000
28.000000, 0.000000, 4610.256348, 4783.076660, 4168.717773, 4657.948730, 4004.102539, 0.000000, 8136.000000, 8353.000000, 0.000000, 0.000000, 0.000000, 0.000000, 898.399994, 1557654784.800890, 4.000000, 4.000000, 2.000000, 4.000000, 4.000000
29.000000, 0.000000, 4584.615234, 4758.461426, 4163.076660, 4654.358887, 4000.512695, 0.000000, 8131.000000, 8353.000000, 0.000000, 0.000000, 0.000000, 0.000000, 906.199993, 1557654784.808690, 4.000000, 4.000000, 2.000000, 4.000000, 4.000000
30.000000, 0.000000, 4586.666504, 4764.615234, 4223.076660, 4647.179199, 4006.666504, 0.000000, 8136.000000, 8356.000000, 0.000000, 0.000000, 0.000000, 0.000000, 913.999992, 1557654784.816490, 4.000000, 4.000000, 2.000000, 4.000000, 4.000000
31.000000, 0.000000, 4595.897461, 4804.615234, 4086.666504, 4631.794922, 4022.051270, 0.000000, 8133.000000, 8356.000000, 0.000000, 0.000000, 0.000000, 0.000000, 921.699993, 1557654784.824190, 4.000000, 4.000000, 2.000000, 4.000000, 4.000000
32.000000, 0.000000, 4569.743652, 4781.025391, 4122.051270, 4659.487305, 4001.538330, 0.000000, 8136.000000, 8344.000000, 0.000000, 0.000000, 0.000000, 0.000000, 929.499992, 1557654784.831990, 4.000000, 4.000000, 2.000000, 4.000000, 4.000000
33.000000, 0.000000, 4552.820313, 4747.692383, 4194.358887, 4662.563965, 3981.538330, 0.000000, 8147.000000, 8346.000000, 0.000000, 0.000000, 0.000000, 0.000000, 937.499992, 1557654784.839990, 4.000000, 4.000000, 2.000000, 4.000000, 4.000000
34.000000, 0.000000, 4560.000000, 4769.743652, 4150.769043, 4615.897461, 3980.512695, 0.000000, 8146.000000, 8353.000000, 0.000000, 0.000000, 0.000000, 0.000000, 945.499992, 1557654784.847990, 4.000000, 4.000000, 2.000000, 4.000000, 4.000000
35.000000, 0.000000, 4555.384277, 4763.589844, 4181.538574, 4613.846191, 3963.589600, 0.000000, 8144.000000, 8352.000000, 0.000000, 0.000000, 0.000000, 0.000000, 953.499992, 1557654784.855990, 4.000000, 4.000000, 2.000000, 4.000000, 4.000000
36.000000, 0.000000, 4541.538574, 4725.127930, 4067.692139, 4606.153809, 3934.358887, 0.000000, 8151.000000, 8344.000000, 0.000000, 0.000000, 0.000000, 0.000000, 961.399994, 1557654784.863890, 4.000000, 4.000000, 2.000000, 4.000000, 4.000000
37.000000, 0.000000, 4533.333008, 4722.563965, 4117.948730, 4591.794922, 3937.435791, 0.000000, 8160.000000, 8344.000000, 0.000000, 0.000000, 0.000000, 0.000000, 969.399994, 1557654784.871890, 4.000000, 4.000000, 2.000000, 4.000000, 4.000000
38.000000, 0.000000, 4517.948730, 4725.641113, 4193.846191, 4602.051270, 3948.205078, 0.000000, 8162.000000, 8341.000000, 0.000000, 0.000000, 0.000000, 0.000000, 977.199997, 1557654784.879690, 4.000000, 4.000000, 2.000000, 4.000000, 4.000000
39.000000, 0.000000, 4506.153809, 4725.127930, 4103.589844, 4565.127930, 3934.871582, 0.000000, 8165.000000, 8339.000000, 0.000000, 0.000000, 0.000000, 0.000000, 984.999992, 1557654784.887490, 4.000000, 4.000000, 2.000000, 4.000000, 4.000000
40.000000, 0.000000, 4508.205078, 4722.563965, 4129.230469, 4553.333008, 3921.025635, 0.000000, 8169.000000, 8342.000000, 0.000000, 0.000000, 0.000000, 0.000000, 992.799988, 1557654784.895290, 4.000000, 4.000000, 2.000000, 4.000000, 4.000000
41.000000, 0.000000, 4493.846191, 4693.846191, 4071.794678, 4592.820313, 3919.487061, 0.000000, 8159.000000, 8342.000000, 0.000000, 0.000000, 0.000000, 1.000000, 0.599991, 1557654784.903090, 4.000000, 4.000000, 2.000000, 4.000000, 4.000000
42.000000, 0.000000, 4496.922852, 4694.871582, 4140.512695, 4570.769043, 3934.358887, 0.000000, 8155.000000, 8333.000000, 0.000000, 0.000000, 0.000000, 1.000000, 8.500000, 1557654784.910990, 4.000000, 4.000000, 2.000000, 4.000000, 4.000000
43.000000, 0.000000, 4528.205078, 4749.743652, 4202.051270, 4524.615234, 3957.435791, 0.000000, 8155.000000, 8326.000000, 0.000000, 0.000000, 0.000000, 1.000000, 16.500000, 1557654784.918990, 4.000000, 4.000000, 2.000000, 4.000000, 4.000000
44.000000, 0.000000, 4521.025391, 4744.102539, 4067.692139, 4550.256348, 3959.487061, 0.000000, 8159.000000, 8341.000000, 0.000000, 0.000000, 0.000000, 1.000000, 24.500000, 1557654784.926990, 4.000000, 4.000000, 2.000000, 4.000000, 4.000000
45.000000, 0.000000, 4492.307617, 4686.153809, 4099.487305, 4553.333008, 3944.615234, 0.000000, 8160.000000, 8334.000000, 0.000000, 0.000000, 0.000000, 1.000000, 32.500000, 1557654784.934990, 4.000000, 4.000000, 2.000000, 4.000000, 4.000000
46.000000, 0.000000, 4492.307617, 4688.717773, 4066.153809, 4508.205078, 3935.384521, 0.000000, 8152.000000, 8330.000000, 0.000000, 0.000000, 0.000000, 1.000000, 40.299988, 1557654784.942790, 4.000000, 4.000000, 2.000000, 4.000000, 4.000000
47.000000, 0.000000, 4495.897461, 4719.487305, 4114.358887, 4528.205078, 3933.845947, 0.000000, 8153.000000, 8339.000000, 0.000000, 0.000000, 0.000000, 1.000000, 48.000000, 1557654784.950490, 4.000000, 4.000000, 2.000000, 4.000000, 4.000000
48.000000, 0.000000, 4484.102539, 4715.897461, 4205.127930, 4560.512695, 3928.205078, 0.000000, 8149.000000, 8338.000000, 0.000000, 0.000000, 0.000000, 1.000000, 55.799988, 1557654784.958290, 4.000000, 4.000000, 2.000000, 4.000000, 4.000000
49.000000, 0.000000, 4477.948730, 4694.358887, 4079.487061, 4536.922852, 3912.307617, 0.000000, 8148.000000, 8337.000000, 0.000000, 0.000000, 0.000000, 1.000000, 63.599991, 1557654784.966090, 4.000000, 4.000000, 2.000000, 4.000000, 4.000000
50.000000, 0.000000, 4478.974121, 4688.205078, 4102.051270, 4514.871582, 3903.589600, 0.000000, 8142.000000, 8341.000000, 0.000000, 0.000000, 0.000000, 1.000000, 71.599991, 1557654784.974090, 4.000000, 4.000000, 2.000000, 4.000000, 4.000000
51.000000, 0.000000, 4477.435547, 4696.922852, 4102.051270, 4510.769043, 3912.307617, 0.000000, 8146.000000, 8335.000000, 0.000000, 0.000000, 0.000000, 1.000000, 79.599991, 1557654784.982090, 4.000000, 4.000000, 2.000000, 4.000000, 4.000000
52.000000, 0.000000, 4482.051270, 4705.641113, 4150.769043, 4531.281738, 3927.179443, 0.000000, 8150.000000, 8339.000000, 0.000000, 0.000000, 0.000000, 1.000000, 87.599991, 1557654784.990090, 4.000000, 4.000000, 2.000000, 4.000000, 4.000000
53.000000, 0.000000, 4475.897461, 4693.333008, 4227.692383, 4575.384277, 3931.281982, 0.000000, 8145.000000, 8345.000000, 0.000000, 0.000000, 0.000000, 1.000000, 95.500000, 1557654784.997990, 4.000000, 4.000000, 2.000000, 4.000000, 4.000000
54.000000, 0.000000, 4451.794922, 4650.256348, 4071.794678, 4565.127930, 3907.179443, 0.000000, 8140.000000, 8356.000000, 0.000000, 0.000000, 0.000000, 1.000000, 103.399994, 1557654785.005890, 4.000000, 4.000000, 2.000000, 4.000000, 4.000000
55.000000, 0.000000, 4446.666504, 4649.743652, 4112.307617, 4511.794922, 3887.692139, 0.000000, 8139.000000, 8352.000000, 0.000000, 0.000000, 0.000000, 1.000000, 111.199997, 1557654785.013690, 4.000000, 4.000000, 2.000000, 4.000000, 4.000000
56.000000, 0.000000, 4478.461426, 4701.025391, 4177.948730, 4526.666504, 3918.461426, 0.000000, 8142.000000, 8345.000000, 0.000000, 0.000000, 0.000000, 1.000000, 119.000000, 1557654785.021490, 4.000000, 4.000000, 2.000000, 4.000000, 4.000000
57.000000, 0.000000, 4495.897461, 4702.563965, 4191.794922, 4567.179199, 3952.820313, 0.000000, 8144.000000, 8359.000000, 0.000000, 0.000000, 0.000000, 1.000000, 126.799988, 1557654785.029290, 4.000000, 4.000000, 2.000000, 4.000000, 4.000000
58.000000, 0.000000, 4476.410156, 4679.487305, 4236.922852, 4555.897461, 3932.820313, 0.000000, 8143.000000, 8362.000000, 0.000000, 0.000000, 0.000000, 1.000000, 134.600006, 1557654785.037090, 4.000000, 4.000000, 2.000000, 4.000000, 4.000000
59.000000, 0.000000, 4470.256348, 4696.410156, 4103.076660, 4563.589844, 3914.871582, 0.000000, 8152.000000, 8349.000000, 0.000000, 0.000000, 0.000000, 1.000000, 142.600006, 1557654785.045090, 4.000000, 4.000000, 2.000000, 4.000000, 4.000000
60.000000, 0.000000, 4488.717773, 4702.563965, 4145.641113, 4615.384277, 3954.358887, 0.000000, 8148.000000, 8358.000000, 0.000000, 0.000000, 0.000000, 1.000000, 150.600006, 1557654785.053090, 4.000000, 4.000000, 2.000000, 4.000000, 4.000000
61.000000, 0.000000, 4475.897461, 4690.769043, 4169.230469, 4592.820313, 3964.102539, 0.000000, 8158.000000, 8367.000000, 0.000000, 0.000000, 0.000000, 1.000000, 158.600006, 1557654785.061090, 4.000000, 4.000000, 2.000000, 4.000000, 4.000000
62.000000, 0.000000, 4439.487305, 4671.281738, 4111.794922, 4521.538574, 3923.076904, 0.000000, 8154.000000, 8358.000000, 0.000000, 0.000000, 0.000000, 1.000000, 166.500000, 1557654785.068990, 4.000000, 4.000000, 2.000000, 4.000000, 4.000000
63.000000, 0.000000, 4437.435547, 4654.358887, 4169.743652, 4537.435547, 3927.179443, 0.000000, 8155.000000, 8357.000000, 0.000000, 0.000000, 0.000000, 1.000000, 174.299988, 1557654785.076790, 4.000000, 4.000000, 2.000000, 4.000000, 4.000000
64.000000, 0.000000, 4447.692383, 4671.794922, 4074.358887, 4585.127930, 3949.743408, 500.000000, 8157.000000, 8357.000000, 0.000000, 0.000000, 0.000000, 1.000000, 182.000000, 1557654785.084490, 4.000000, 4.000000, 2.000000, 4.000000, 4.000000
65.000000, 0.000000, 4454.871582, 4698.974121, 4129.230469, 4568.717773, 3932.820313, 500.000000, 8162.000000, 8359.000000, 0.000000, 0.000000, 0.000000, 1.000000, 189.799988, 1557654785.092290, 4.000000, 4.000000, 2.000000, 4.000000, 4.000000
66.000000, 0.000000, 4482.563965, 4703.589844, 4190.769043, 4528.205078, 3918.974365, 16190.000000, 8157.000000, 8364.000000, 0.000000, 0.000000, 0.000000, 1.000000, 197.600006, 1557654785.100090, 4.000000, 4.000000, 2.000000, 4.000000, 4.000000
67.000000, 0.000000, 4483.076660, 4711.794922, 4110.256348, 4521.025391, 3933.845947, 500.000000, 8153.000000, 8365.000000, 0.000000, 0.000000, 0.000000, 1.000000, 205.500000, 1557654785.107990, 4.000000, 4.000000, 2.000000, 4.000000, 4.000000
68.000000, 0.000000, 4461.538574, 4713.846191, 4150.769043, 4540.000000, 3960.512695, 16071.000000, 8162.000000, 8365.000000, 0.000000, 0.000000, 0.000000, 1.000000, 213.500000, 1557654785.115990, 4.000000, 4.000000, 2.000000, 4.000000, 4.000000
69.000000, 0.000000, 4471.794922, 4672.307617, 4077.435791, 4543.076660, 3968.717773, 500.000000, 8162.000000, 8358.000000, 0.000000, 0.000000, 0.000000, 1.000000, 221.399994, 1557654785.123890, 4.000000, 4.000000, 2.000000, 4.000000, 4.000000
70.000000, 0.000000, 4468.205078, 4660.512695, 4129.743652, 4511.794922, 3950.769043, 221.000000, 8161.000000, 8364.000000, 0.000000, 0.000000, 0.000000, 1.000000, 229.399994, 1557654785.131890, 4.000000, 4.000000, 2.000000, 4.000000, 4.000000
71.000000, 0.000000, 4432.820313, 4683.589844, 4205.641113, 4481.025391, 3942.051270, 500.000000, 8154.000000, 8363.000000, 0.000000, 0.000000, 0.000000, 1.000000, 237.199982, 1557654785.139690, 4.000000, 4.000000, 2.000000, 4.000000, 4.000000
72.000000, 0.000000, 4418.461426, 4665.641113, 4101.538574, 4466.666504, 3949.230713, 500.000000, 8162.000000, 8352.000000, 0.000000, 0.000000, 0.000000, 1.000000, 245.000000, 1557654785.147490, 4.000000, 4.000000, 2.000000, 4.000000, 4.000000
73.000000, 0.000000, 4431.281738, 4658.461426, 4110.769043, 4464.615234, 3945.128174, 16089.000000, 8163.000000, 8353.000000, 0.000000, 0.000000, 0.000000, 1.000000, 252.799988, 1557654785.155290, 4.000000, 4.000000, 2.000000, 4.000000, 4.000000
74.000000, 0.000000, 4443.076660, 4682.051270, 4046.153809, 4446.666504, 3947.692139, 500.000000, 8159.000000, 8359.000000, 0.000000, 0.000000, 0.000000, 1.000000, 260.500000, 1557654785.162990, 4.000000, 4.000000, 2.000000, 4.000000, 4.000000
75.000000, 0.000000, 4451.281738, 4652.307617, 4102.051270, 4426.153809, 3970.769043, 16184.000000, 8160.000000, 8345.000000, 0.000000, 0.000000, 0.000000, 1.000000, 268.399994, 1557654785.170890, 4.000000, 4.000000, 2.000000, 4.000000, 4.000000
76.000000, 0.000000, 4459.487305, 4611.794922, 4174.871582, 4432.820313, 3980.000000, 500.000000, 8161.000000, 8347.000000, 0.000000, 0.000000, 0.000000, 1.000000, 276.399994, 1557654785.178890, 4.000000, 4.000000, 2.000000, 4.000000, 4.000000
77.000000, 0.000000, 4452.307617, 4643.076660, 4025.640869, 4424.615234, 3958.461426, 500.000000, 8162.000000, 8347.000000, 0.000000, 0.000000, 0.000000, 1.000000, 284.399994, 1557654785.186890, 4.000000, 4.000000, 2.000000, 4.000000, 4.000000
78.000000, 0.000000, 4432.820313, 4681.538574, 4052.820313, 4404.615234, 3946.666504, 450.000000, 8163.000000, 8342.000000, 0.000000, 0.000000, 0.000000, 1.000000, 292.399994, 1557654785.194890, 4.000000, 4.000000, 2.000000, 4.000000, 4.000000
79.000000, 0.000000, 4425.641113, 4676.922852, 4058.974365, 4392.307617, 3968.717773, 16184.000000, 8159.000000, 8348.000000, 0.000000, 0.000000, 0.000000, 1.000000, 300.399994, 1557654785.202890, 4.000000, 4.000000, 2.000000, 4.000000, 4.000000
80.000000, 0.000000, 4438.974121, 4650.256348, 4106.153809, 4409.743652, 3971.794678, 450.000000, 8153.000000, 8349.000000, 0.000000, 0.000000, 0.000000, 1.000000, 308.100006, 1557654785.210590, 4.000000, 4.000000, 2.000000, 4.000000, 4.000000
81.000000, 0.000000, 4441.025391, 4629.743652, 4172.307617, 4420.512695, 3951.281982, 450.000000, 8156.000000, 8342.000000, 0.000000, 0.000000, 0.000000, 1.000000, 315.899994, 1557654785.218390, 4.000000, 4.000000, 2.000000, 4.000000, 4.000000
82.000000, 0.000000, 4423.076660, 4628.205078, 4031.281982, 4373.333008, 3955.897461, 450.000000, 8162.000000, 8338.000000, 0.000000, 0.000000, 0.000000, 1.000000, 323.699982, 1557654785.226190, 4.000000, 4.000000, 2.000000, 4.000000, 4.000000
83.000000, 0.000000, 4430.769043, 4637.435547, 4070.769043, 4367.179199, 3978.974365, 16184.000000, 8164.000000, 8351.000000, 0.000000, 0.000000, 0.000000, 1.000000, 331.500000, 1557654785.233990, 4.000000, 4.000000, 2.000000, 4.000000, 4.000000
84.000000, 0.000000, 4444.615234, 4631.281738, 4078.461426, 4402.051270, 3973.333252, 450.000000, 8162.000000, 8353.000000, 0.000000, 0.000000, 0.000000, 1.000000, 339.500000, 1557654785.241990, 4.000000, 4.000000, 2.000000, 4.000000, 4.000000
85.000000, 0.000000, 4423.076660, 4615.897461, 4082.051270, 4372.820313, 3966.153809, 450.000000, 8170.000000, 8344.000000, 0.000000, 0.000000, 0.000000, 1.000000, 347.399994, 1557654785.249890, 4.000000, 4.000000, 2.000000, 4.000000, 4.000000
86.000000, 0.000000, 4422.563965, 4635.897461, 4166.153809, 4349.743652, 4004.102539, 450.000000, 8161.000000, 8344.000000, 0.000000, 0.000000, 0.000000, 1.000000, 355.399994, 1557654785.257890, 4.000000, 4.000000, 2.000000, 4.000000, 4.000000
87.000000, 0.000000, 4459.487305, 4678.461426, 4037.435791, 4382.563965, 4037.435791, 16184.000000, 8156.000000, 8353.000000, 0.000000, 0.000000, 0.000000, 1.000000, 363.399994, 1557654785.265890, 4.000000, 4.000000, 2.000000, 4.000000, 4.000000
88.000000, 0.000000, 4468.205078, 4694.871582, 4060.512695, 4371.794922, 4031.281982, 450.000000, 8158.000000, 8353.000000, 0.000000, 0.000000, 0.000000, 1.000000, 371.199982, 1557654785.273690, 4.000000, 4.000000, 2.000000, 4.000000, 4.000000
89.000000, 0.000000, 4462.051270, 4668.205078, 4117.948730, 4330.769043, 4027.179443, 450.000000, 8155.000000, 8346.000000, 0.000000, 0.000000, 0.000000, 1.000000, 378.999969, 1557654785.281490, 4.000000, 4.000000, 2.000000, 4.000000, 4.000000
90.000000, 0.000000, 4481.538574, 4652.307617, 4126.666504, 4341.538574, 4053.845947, 450.000000, 8156.000000, 8354.000000, 0.000000, 0.000000, 0.000000, 1.000000, 386.800018, 1557654785.289290, 4.000000, 4.000000, 2.000000, 4.000000, 4.000000
91.000000, 0.000000, 4494.358887, 4678.974121, 4182.563965, 4354.358887, 4076.923096, 16184.000000, 8161.000000, 8356.000000, 0.000000, 0.000000, 0.000000, 1.000000, 394.600006, 1557654785.297090, 4.000000, 4.000000, 2.000000, 4.000000, 4.000000
92.000000, 0.000000, 4470.256348, 4689.743652, 4049.230713, 4324.615234, 4050.256348, 450.000000, 8161.000000, 8353.000000, 0.000000, 0.000000, 0.000000, 1.000000, 402.499969, 1557654785.304990, 4.000000, 4.000000, 2.000000, 4.000000, 4.000000
93.000000, 0.000000, 4441.538574, 4654.871582, 4095.897217, 4319.487305, 4013.845947, 450.000000, 8165.000000, 8355.000000, 0.000000, 0.000000, 0.000000, 1.000000, 410.399994, 1557654785.312890, 4.000000, 4.000000, 2.000000, 4.000000, 4.000000
94.000000, 0.000000, 4420.512695, 4640.000000, 4166.153809, 4330.769043, 4006.153809, 450.000000, 8166.000000, 8350.000000, 0.000000, 0.000000, 0.000000, 1.000000, 418.399994, 1557654785.320890, 4.000000, 4.000000, 2.000000, 4.000000, 4.000000
95.000000, 0.000000, 4413.333008, 4644.102539, 4106.666504, 4322.051270, 4010.256348, 16184.000000, 8162.000000, 8348.000000, 0.000000, 0.000000, 0.000000, 1.000000, 426.399994, 1557654785.328890, 4.000000, 4.000000, 2.000000, 4.000000, 4.000000
96.000000, 0.000000, 4426.153809, 4625.127930, 4144.102539, 4328.205078, 4018.974365, 450.000000, 8160.000000, 8362.000000, 0.000000, 0.000000, 0.000000, 1.000000, 434.300018, 1557654785.336790, 4.000000, 4.000000, 2.000000, 4.000000, 4.000000
97.000000, 0.000000, 4425.127930, 4615.384277, 4065.128174, 4361.025391, 4024.615234, 450.000000, 8154.000000, 8356.000000, 0.000000, 0.000000, 0.000000, 1.000000, 442.100006, 1557654785.344590, 4.000000, 4.000000, 2.000000, 4.000000, 4.000000
98.000000, 0.000000, 4421.538574, 4623.589844, 4132.307617, 4393.846191, 4030.769043, 450.000000, 8163.000000, 8341.000000, 0.000000, 0.000000, 0.000000, 1.000000, 449.899994, 1557654785.352390, 4.000000, 4.000000, 2.000000, 4.000000, 4.000000
99.000000, 0.000000, 4445.127930, 4623.076660, 4177.948730, 4383.076660, 4047.692139, 16184.000000, 8162.000000, 8347.000000, 0.000000, 0.000000, 0.000000, 1.000000, 457.699982, 1557654785.360190, 4.000000, 4.000000, 2.000000, 4.000000, 4.000000
100.000000, 0.000000, 4451.281738, 4622.563965, 4060.000000, 4371.794922, 4051.794678, 450.000000, 8159.000000, 8349.000000, 0.000000, 0.000000, 0.000000, 1.000000, 465.499969, 1557654785.367990, 4.000000, 4.000000, 2.000000, 4.000000, 4.000000
101.000000, 0.000000, 4435.897461, 4627.692383, 4116.922852, 4412.307617, 4040.000000, 450.000000, 8162.000000, 8351.000000, 0.000000, 0.000000, 0.000000, 1.000000, 473.499969, 1557654785.375990, 4.000000, 4.000000, 2.000000, 4.000000, 4.000000
102.000000, 0.000000, 4446.666504, 4638.461426, 4084.102539, 4426.153809, 4064.102539, 450.000000, 8159.000000, 8336.000000, 0.000000, 0.000000, 0.000000, 1.000000, 481.399994, 1557654785.383890, 4.000000, 4.000000, 2.000000, 4.000000, 4.000000
103.000000, 0.000000, 4458.461426, 4641.025391, 4128.717773, 4401.025391, 4090.256348, 16184.000000, 8161.000000, 8329.000000, 0.000000, 0.000000, 0.000000, 1.000000, 489.399994, 1557654785.391890, 4.000000, 4.000000, 2.000000, 4.000000, 4.000000
104.000000, 0.000000, 4444.102539, 4631.281738, 4190.769043, 4424.102539, 4070.769043, 450.000000, 8170.000000, 8332.000000, 0.000000, 0.000000, 0.000000, 1.000000, 497.399994, 1557654785.399890, 4.000000, 4.000000, 2.000000, 4.000000, 4.000000
105.000000, 0.000000, 4447.692383, 4639.487305, 4076.410156, 4453.333008, 4068.717773, 450.000000, 8163.000000, 8330.000000, 0.000000, 0.000000, 0.000000, 1.000000, 505.199982, 1557654785.407690, 4.000000, 4.000000, 2.000000, 4.000000, 4.000000
106.000000, 0.000000, 4479.487305, 4668.205078, 4106.666504, 4429.230469, 4100.000000, 450.000000, 8153.000000, 8337.000000, 0.000000, 0.000000, 0.000000, 1.000000, 512.999969, 1557654785.415490, 4.000000, 4.000000, 2.000000, 4.000000, 4.000000
107.000000, 0.000000, 4490.769043, 4669.743652, 4078.461426, 4398.974121, 4102.051270, 16184.000000, 8164.000000, 8334.000000, 0.000000, 0.000000, 0.000000, 1.000000, 520.699982, 1557654785.423190, 4.000000, 4.000000, 2.000000, 4.000000, 4.000000
108.000000, 0.000000, 4467.692383, 4649.230469, 4129.743652, 4389.230469, 4091.794678, 450.000000, 8167.000000, 8331.000000, 0.000000, 0.000000, 0.000000, 1.000000, 528.499969, 1557654785.430990, 4.000000, 4.000000, 2.000000, 4.000000, 4.000000
109.000000, 0.000000, 4450.769043, 4637.435547, 4210.769043, 4385.641113, 4104.102539, 450.000000, 8161.000000, 8340.000000, 0.000000, 0.000000, 0.000000, 1.000000, 536.499969, 1557654785.438990, 4.000000, 4.000000, 2.000000, 4.000000, 4.000000
110.000000, 0.000000, 4459.487305, 4647.692383, 4074.358887, 4387.692383, 4111.281738, 450.000000, 8148.000000, 8350.000000, 0.000000, 0.000000, 0.000000, 1.000000, 544.499969, 1557654785.446990, 4.000000, 4.000000, 2.000000, 4.000000, 4.000000
111.000000, 0.000000, 4473.846191, 4674.871582, 4100.512695, 4413.846191, 4117.948730, 16184.000000, 8154.000000, 8341.000000, 0.000000, 0.000000, 0.000000, 1.000000, 552.499969, 1557654785.454990, 4.000000, 4.000000, 2.000000, 4.000000, 4.000000
112.000000, 0.000000, 4472.820313, 4687.179199, 4106.666504, 4425.641113, 4128.205078, 450.000000, 8161.000000, 8349.000000, 0.000000, 0.000000, 0.000000, 1.000000, 560.399994, 1557654785.462890, 4.000000, 4.000000, 2.000000, 4.000000, 4.000000
113.000000, 0.000000, 4469.743652, 4676.410156, 4133.333008, 4401.025391, 4125.641113, 450.000000, 8154.000000, 8363.000000, 0.000000, 0.000000, 0.000000, 1.000000, 568.199982, 1557654785.470690, 4.000000, 4.000000, 2.000000, 4.000000, 4.000000
114.000000, 0.000000, 4472.820313, 4667.692383, 4191.794922, 4371.794922, 4138.974121, 450.000000, 8151.000000, 8369.000000, 0.000000, 0.000000, 0.000000, 1.000000, 575.999969, 1557654785.478490, 4.000000, 4.000000, 2.000000, 4.000000, 4.000000
115.000000, 0.000000, 4465.127930, 4655.384277, 4043.076904, 4353.846191, 4151.281738, 16184.000000, 8152.000000, 8359.000000, 0.000000, 0.000000, 0.000000, 1.000000, 583.800018, 1557654785.486290, 4.000000, 4.000000, 2.000000, 4.000000, 4.000000
116.000000, 0.000000, 4460.000000, 4655.384277, 4092.820313, 4392.820313, 4154.871582, 450.000000, 8148.000000, 8357.000000, 0.000000, 0.000000, 0.000000, 1.000000, 591.600006, 1557654785.494090, 4.000000, 4.000000, 2.000000, 4.000000, 4.000000
117.000000, 0.000000, 4471.794922, 4687.692383, 4139.487305, 4426.666504, 4176.922852, 450.000000, 8149.000000, 8363.000000, 0.000000, 0.000000, 0.000000, 1.000000, 599.600006, 1557654785.502090, 4.000000, 4.000000, 2.000000, 4.000000, 4.000000
118.000000, 0.000000, 4478.974121, 4709.743652, 4133.333008, 4400.512695, 4187.692383, 450.000000, 8150.000000, 8359.000000, 0.000000, 0.000000, 0.000000, 1.000000, 607.499969, 1557654785.509990, 4.000000, 4.000000, 2.000000, 4.000000, 4.000000
119.000000, 0.000000, 4480.000000, 4714.871582, 4191.281738, 4383.589844, 4171.794922, 16184.000000, 8144.000000, 8358.000000, 0.000000, 0.000000, 0.000000, 1.000000, 615.499969, 1557654785.517990, 4.000000, 4.000000, 2.000000, 4.000000, 4.000000
120.000000, 0.000000, 4491.281738, 4726.666504, 4055.384521, 4391.281738, 4177.948730, 450.000000, 8145.000000, 8351.000000, 0.000000, 0.000000, 0.000000, 1.000000, 623.499969, 1557654785.525990, 4.000000, 4.000000, 2.000000, 4.000000, 4.000000
121.000000, 0.000000, 4503.076660, 4728.205078, 4093.845947, 4379.487305, 4204.102539, 450.000000, 8144.000000, 8349.000000, 0.000000, 0.000000, 0.000000, 1.000000, 631.300018, 1557654785.533790, 4.000000, 4.000000, 2.000000, 4.000000, 4.000000
122.000000, 0.000000, 4510.256348, 4735.897461, 4149.743652, 4387.692383, 4212.307617, 450.000000, 8144.000000, 8356.000000, 0.000000, 0.000000, 0.000000, 1.000000, 639.100006, 1557654785.541590, 4.000000, 4.000000, 2.000000, 4.000000, 4.000000
123.000000, 0.000000, 4518.974121, 4767.179199, 4115.384277, 4438.974121, 4209.743652, 16184.000000, 8144.000000, 8353.000000, 0.000000, 0.000000, 0.000000, 1.000000, 646.800018, 1557654785.549290, 4.000000, 4.000000, 2.000000, 4.000000, 4.000000
124.000000, 0.000000, 4533.333008, 4777.435547, 4177.948730, 4448.205078, 4225.641113, 450.000000, 8148.000000, 8341.000000, 0.000000, 0.000000, 0.000000, 1.000000, 654.600006, 1557654785.557090, 4.000000, 4.000000, 2.000000, 4.000000, 4.000000
125.000000, 0.000000, 4548.717773, 4770.256348, 4083.076904, 4423.076660, 4249.743652, 450.000000, 8151.000000, 8343.000000, 0.000000, 0.000000, 0.000000, 1.000000, 662.499969, 1557654785.564990, 4.000000, 4.000000, 2.000000, 4.000000, 4.000000
126.000000, 0.000000, 4561.538574, 4777.948730, 4129.230469, 4445.127930, 4263.589844, 450.000000, 8149.000000, 8347.000000, 0.000000, 0.000000, 0.000000, 1.000000, 670.499969, 1557654785.572990, 4.000000, 4.000000, 2.000000, 4.000000, 4.000000
127.000000, 0.000000, 4570.256348, 4769.230469, 4177.948730, 4461.538574, 4263.589844, 16184.000000, 8154.000000, 8343.000000, 0.000000, 0.000000, 0.000000, 1.000000, 678.499969, 1557654785.580990, 4.000000, 4.000000, 2.000000, 4.000000, 4.000000
128.000000, 0.000000, 4568.717773, 4761.025391, 4086.666504, 4433.333008, 4268.205078, 500.000000, 8152.000000, 8337.000000, 0.000000, 0.000000, 0.000000, 1.000000, 686.499969, 1557654785.588990, 4.000000, 4.000000, 2.000000, 4.000000, 4.000000
0.000000, 0.000000, 4577.435547, 4801.025391, 4130.256348, 4434.871582, 4289.230469, 500.000000, 8160.000000, 8339.000000, 0.000000, 0.000000, 0.000000, 1.000000, 694.199982, 1557654785.596690, 4.000000, 4.000000, 2.000000, 4.000000, 4.000000
1.000000, 0.000000, 4602.051270, 4831.794922, 4077.948730, 4451.281738, 4316.922852, 500.000000, 8151.000000, 8341.000000, 0.000000, 0.000000, 0.000000, 1.000000, 701.999969, 1557654785.604490, 4.000000, 4.000000, 2.000000, 4.000000, 4.000000
2.000000, 0.000000, 4615.897461, 4820.000000, 4143.076660, 4453.846191, 4347.692383, 16189.000000, 8158.000000, 8339.000000, 0.000000, 0.000000, 0.000000, 1.000000, 709.800018, 1557654785.612290, 4.000000, 4.000000, 2.000000, 4.000000, 4.000000
3.000000, 0.000000, 4617.948730, 4817.435547, 4208.205078, 4462.051270, 4367.692383, 500.000000, 8155.000000, 8336.000000, 0.000000, 0.000000, 0.000000, 1.000000, 717.600006, 1557654785.620090, 4.000000, 4.000000, 2.000000, 4.000000, 4.000000
4.000000, 0.000000, 4623.076660, 4824.615234, 4093.845947, 4457.435547, 4373.333008, 317.000000, 8159.000000, 8341.000000, 0.000000, 0.000000, 0.000000, 1.000000, 725.600006, 1557654785.628090, 4.000000, 2.000000, 2.000000, 4.000000, 4.000000
5.000000, 0.000000, 4627.692383, 4813.333008, 4130.769043, 4457.435547, 4380.512695, 500.000000, 8157.000000, 8336.000000, 0.000000, 0.000000, 0.000000, 1.000000, 733.399994, 1557654785.635890, 4.000000, 2.000000, 2.000000, 4.000000, 4.000000
6.000000, 0.000000, 4619.487305, 4813.333008, 4099.487305, 4477.948730, 4369.743652, 228.000000, 8148.000000, 8344.000000, 0.000000, 0.000000, 0.000000, 1.000000, 741.399994, 1557654785.643890, 4.000000, 2.000000, 2.000000, 4.000000, 4.000000
7.000000, 0.000000, 4620.000000, 4821.025391, 4149.230469, 4494.871582, 4354.358887, 500.000000, 8156.000000, 8330.000000, 0.000000, 0.000000, 0.000000, 1.000000, 749.399994, 1557654785.651890, 4.000000, 2.000000, 2.000000, 4.000000, 4.000000
8.000000, 0.000000, 4651.281738, 4810.256348, 4215.897461, 4510.769043, 4371.794922, 500.000000, 8156.000000, 8332.000000, 0.000000, 0.000000, 0.000000, 1.000000, 757.399994, 1557654785.659890, 4.000000, 2.000000, 2.000000, 4.000000, 4.000000
9.000000, 0.000000, 4665.127930, 4811.281738, 4068.717773, 4484.615234, 4381.025391, 16089.000000, 8160.000000, 8331.000000, 0.000000, 0.000000, 0.000000, 1.000000, 765.199982, 1557654785.667690, 4.000000, 2.000000, 2.000000, 4.000000, 4.000000
10.000000, 0.000000, 4643.076660, 4818.461426, 4108.717773, 4431.281738, 4383.589844, 500.000000, 8151.000000, 8336.000000, 0.000000, 0.000000, 0.000000, 1.000000, 772.999969, 1557654785.675490, 4.000000, 2.000000, 2.000000, 4.000000, 4.000000
11.000000, 0.000000, 4624.102539, 4801.025391, 4135.897461, 4445.127930, 4394.871582, 16195.000000, 8153.000000, 8342.000000, 0.000000, 0.000000, 0.000000, 1.000000, 780.699982, 1557654785.683190, 4.000000, 2.000000, 2.000000, 4.000000, 4.000000
12.000000, 0.000000, 4632.820313, 4790.256348, 4171.794922, 4511.794922, 4376.922852, 500.000000, 8157.000000, 8332.000000, 0.000000, 0.000000, 0.000000, 1.000000, 788.499969, 1557654785.690990, 4.000000, 2.000000, 2.000000, 4.000000, 4.000000
13.000000, 0.000000, 4653.846191, 4792.820313, 4233.846191, 4514.358887, 4368.205078, 500.000000, 8148.000000, 8326.000000, 0.000000, 0.000000, 0.000000, 1.000000, 796.499969, 1557654785.698990, 4.000000, 2.000000, 2.000000, 4.000000, 4.000000
14.000000, 0.000000, 4657.435547, 4747.179199, 4122.563965, 4469.230469, 4391.281738, 450.000000, 8147.000000, 8340.000000, 0.000000, 0.000000, 0.000000, 1.000000, 804.499969, 1557654785.706990, 4.000000, 2.000000, 2.000000, 4.000000, 4.000000
15.000000, 0.000000, 4642.051270, 4722.051270, 4167.692383, 4486.153809, 4377.948730, 16195.000000, 8141.000000, 8344.000000, 0.000000, 0.000000, 0.000000, 1.000000, 812.499969, 1557654785.714990, 4.000000, 2.000000, 2.000000, 4.000000, 4.000000
16.000000, 0.000000, 4617.435547, 4771.281738, 4136.922852, 4497.435547, 4345.641113, 0.000000, 8138.000000, 8344.000000, 0.000000, 0.000000, 0.000000, 1.000000, 820.399994, 1557654785.722890, 4.000000, 2.000000, 2.000000, 4.000000, 4.000000
17.000000, 0.000000, 4609.230469, 4784.615234, 4092.820313, 4493.333008, 4359.487305, 0.000000, 8147.000000, 8348.000000, 0.000000, 0.000000, 0.000000, 1.000000, 828.199982, 1557654785.730690, 4.000000, 2.000000, 2.000000, 4.000000, 4.000000
18.000000, 0.000000, 4623.589844, 4762.563965, 4166.153809, 4539.487305, 4393.846191, 0.000000, 8146.000000, 8347.000000, 0.000000, 0.000000, 0.000000, 1.000000, 835.999969, 1557654785.738490, 4.000000, 2.000000, 2.000000, 4.000000, 4.000000
19.000000, 0.000000, 4635.897461, 4763.589844, 4071.794678, 4556.922852, 4416.922852, 0.000000, 8139.000000, 8354.000000, 0.000000, 0.000000, 0.000000, 1.000000, 843.800018, 1557654785.746290, 4.000000, 2.000000, 2.000000, 4.000000, 4.000000
20.000000, 0.000000, 4626.153809, 4752.820313, 4134.871582, 4543.589844, 4415.384277, 0.000000, 8136.000000, 8357.000000, 0.000000, 0.000000, 0.000000, 1.000000, 851.600006, 1557654785.754090, 4.000000, 2.000000, 2.000000, 4.000000, 4.000000
21.000000, 0.000000, 4606.666504, 4739.487305, 4178.461426, 4523.076660, 4380.000000, 0.000000, 8139.000000, 8360.000000, 0.000000, 0.000000, 0.000000, 1.000000, 859.499969, 1557654785.761990, 4.000000, 2.000000, 2.000000, 4.000000, 4.000000
22.000000, 0.000000, 4596.922852, 4752.820313, 4144.102539, 4511.281738, 4359.487305, 0.000000, 8146.000000, 8348.000000, 0.000000, 0.000000, 0.000000, 1.000000, 867.499994, 1557654785.769990, 4.000000, 2.000000, 2.000000, 4.000000, 4.000000
23.000000, 0.000000, 4609.230469, 4756.922852, 4202.563965, 4511.794922, 4384.102539, 0.000000, 8140.000000, 8358.000000, 0.000000, 0.000000, 0.000000, 1.000000, 875.399994, 1557654785.777890, 4.000000, 2.000000, 2.000000, 4.000000, 4.000000
24.000000, 0.000000, 4616.410156, 4740.000000, 4086.153809, 4471.281738, 4393.333008, 0.000000, 8131.000000, 8366.000000, 0.000000, 0.000000, 0.000000, 1.000000, 883.399994, 1557654785.785890, 4.000000, 2.000000, 2.000000, 4.000000, 4.000000
25.000000, 0.000000, 4583.076660, 4725.127930, 4092.820313, 4435.897461, 4361.025391, 0.000000, 8141.000000, 8355.000000, 0.000000, 0.000000, 0.000000, 1.000000, 891.399994, 1557654785.793890, 4.000000, 2.000000, 2.000000, 4.000000, 4.000000
26.000000, 0.000000, 4560.512695, 4711.281738, 4115.897461, 4456.410156, 4351.281738, 0.000000, 8140.000000, 8350.000000, 0.000000, 0.000000, 0.000000, 1.000000, 899.199993, 1557654785.801690, 4.000000, 2.000000, 2.000000, 4.000000, 4.000000
27.000000, 0.000000, 4583.076660, 4701.538574, 4078.461426, 4455.897461, 4382.051270, 0.000000, 8140.000000, 8360.000000, 0.000000, 0.000000, 0.000000, 1.000000, 906.899994, 1557654785.809390, 4.000000, 2.000000, 2.000000, 4.000000, 4.000000
28.000000, 0.000000, 4602.051270, 4722.563965, 4173.333008, 4427.179199, 4393.846191, 0.000000, 8141.000000, 8355.000000, 0.000000, 0.000000, 0.000000, 1.000000, 914.699993, 1557654785.817190, 4.000000, 2.000000, 2.000000, 4.000000, 4.000000
29.000000, 0.000000, 4600.000000, 4726.153809, 4093.845947, 4445.127930, 4373.846191, 0.000000, 8143.000000, 8351.000000, 0.000000, 0.000000, 0.000000, 1.000000, 922.599995, 1557654785.825090, 4.000000, 2.000000, 2.000000, 4.000000, 4.000000
30.000000, 0.000000, 4616.922852, 4683.589844, 4110.769043, 4457.435547, 4389.743652, 0.000000, 8148.000000, 8352.000000, 0.000000, 0.000000, 0.000000, 1.000000, 930.599991, 1557654785.833090, 4.000000, 2.000000, 2.000000, 4.000000, 4.000000
31.000000, 0.000000, 4627.692383, 4678.461426, 4133.333008, 4416.410156, 4409.230469, 0.000000, 8150.000000, 8348.000000, 0.000000, 0.000000, 0.000000, 1.000000, 938.499992, 1557654785.840990, 4.000000, 2.000000, 2.000000, 4.000000, 4.000000
32.000000, 0.000000, 4605.127930, 4714.358887, 4027.179443, 4404.615234, 4379.487305, 0.000000, 8152.000000, 8342.000000, 0.000000, 0.000000, 0.000000, 1.000000, 946.399994, 1557654785.848890, 4.000000, 2.000000, 2.000000, 4.000000, 4.000000
33.000000, 0.000000, 4613.333008, 4713.333008, 4111.794922, 4409.743652, 4398.461426, 0.000000, 8149.000000, 8344.000000, 0.000000, 0.000000, 0.000000, 1.000000, 954.399994, 1557654785.856890, 4.000000, 2.000000, 2.000000, 4.000000, 4.000000
34.000000, 0.000000, 4633.846191, 4683.589844, 4092.820313, 4396.410156, 4448.717773, 0.000000, 8151.000000, 8351.000000, 0.000000, 0.000000, 0.000000, 1.000000, 962.199997, 1557654785.864690, 4.000000, 2.000000, 2.000000, 4.000000, 4.000000
35.000000, 0.000000, 4608.717773, 4687.179199, 4117.948730, 4408.717773, 4432.307617, 0.000000, 8152.000000, 8337.000000, 0.000000, 0.000000, 0.000000, 1.000000, 969.999992, 1557654785.872490, 4.000000, 2.000000, 2.000000, 4.000000, 4.000000
36.000000, 0.000000, 4577.435547, 4697.435547, 4161.538574, 4433.846191, 4398.461426, 0.000000, 8150.000000, 8343.000000, 0.000000, 0.000000, 0.000000, 1.000000, 977.799995, 1557654785.880290, 4.000000, 2.000000, 2.000000, 4.000000, 4.000000
37.000000, 0.000000, 4565.127930, 4670.256348, 4059.487061, 4410.256348, 4389.230469, 0.000000, 8150.000000, 8341.000000, 0.000000, 0.000000, 0.000000, 1.000000, 985.599991, 1557654785.888090, 4.000000, 2.000000, 2.000000, 4.000000, 4.000000
38.000000, 0.000000, 4563.076660, 4654.871582, 4116.922852, 4366.153809, 4375.897461, 0.000000, 8149.000000, 8332.000000, 0.000000, 0.000000, 0.000000, 1.000000, 993.399994, 1557654785.895890, 4.000000, 2.000000, 2.000000, 4.000000, 4.000000
39.000000, 0.000000, 4567.692383, 4661.538574, 4071.794678, 4362.563965, 4360.000000, 0.000000, 8143.000000, 8335.000000, 0.000000, 0.000000, 0.000000, 2.000000, 1.399994, 1557654785.903890, 4.000000, 2.000000, 2.000000, 4.000000, 4.000000
40.000000, 0.000000, 4559.487305, 4635.897461, 4087.179443, 4384.615234, 4360.512695, 0.000000, 8145.000000, 8348.000000, 0.000000, 0.000000, 0.000000, 2.000000, 9.399994, 1557654785.911890, 4.000000, 2.000000, 2.000000, 4.000000, 4.000000
41.000000, 0.000000, 4530.256348, 4607.179199, 4186.666504, 4373.846191, 4358.974121, 0.000000, 8151.000000, 8341.000000, 0.000000, 0.000000, 0.000000, 2.000000, 17.399994, 1557654785.919890, 4.000000, 2.000000, 2.000000, 4.000000, 4.000000
42.000000, 0.000000, 4518.461426, 4622.051270, 4080.000000, 4328.205078, 4358.461426, 0.000000, 8147.000000, 8333.000000, 0.000000, 0.000000, 0.000000, 2.000000, 25.399994, 1557654785.927890, 4.000000, 2.000000, 2.000000, 4.000000, 4.000000
43.000000, 0.000000, 4537.435547, 4625.127930, 4106.153809, 4335.897461, 4357.948730, 0.000000, 8142.000000, 8340.000000, 0.000000, 0.000000, 0.000000, 2.000000, 33.099991, 1557654785.935590, 4.000000, 2.000000, 2.000000, 4.000000, 4.000000
44.000000, 0.000000, 4544.615234, 4604.102539, 4114.358887, 4388.205078, 4347.179199, 0.000000, 8144.000000, 8337.000000, 0.000000, 0.000000, 0.000000, 2.000000, 40.899994, 1557654785.943390, 4.000000, 2.000000, 2.000000, 4.000000, 4.000000
45.000000, 0.000000, 4538.461426, 4613.333008, 4148.717773, 4388.205078, 4353.846191, 0.000000, 8144.000000, 8340.000000, 0.000000, 0.000000, 0.000000, 2.000000, 48.699997, 1557654785.951190, 4.000000, 2.000000, 2.000000, 4.000000, 4.000000
46.000000, 0.000000, 4545.127930, 4627.179199, 4208.205078, 4355.897461, 4372.307617, 0.000000, 8141.000000, 8342.000000, 0.000000, 0.000000, 0.000000, 2.000000, 56.500000, 1557654785.958990, 4.000000, 2.000000, 2.000000, 4.000000, 4.000000
47.000000, 0.000000, 4551.794922, 4618.461426, 4037.435791, 4359.487305, 4374.871582, 0.000000, 8146.000000, 8349.000000, 0.000000, 0.000000, 0.000000, 2.000000, 64.500000, 1557654785.966990, 4.000000, 2.000000, 2.000000, 4.000000, 4.000000
48.000000, 0.000000, 4552.307617, 4612.820313, 4051.281982, 4395.384277, 4374.871582, 0.000000, 8146.000000, 8345.000000, 0.000000, 0.000000, 0.000000, 2.000000, 72.500000, 1557654785.974990, 4.000000, 2.000000, 2.000000, 4.000000, 4.000000
49.000000, 0.000000, 4553.846191, 4603.076660, 4091.794678, 4399.487305, 4381.538574, 0.000000, 8145.000000, 8345.000000, 0.000000, 0.000000, 0.000000, 2.000000, 80.399994, 1557654785.982890, 4.000000, 2.000000, 2.000000, 4.000000, 4.000000
50.000000, 0.000000, 4527.692383, 4572.307617, 4093.845947, 4372.820313, 4363.589844, 0.000000, 8144.000000, 8357.000000, 0.000000, 0.000000, 0.000000, 2.000000, 88.399994, 1557654785.990890, 4.000000, 2.000000, 2.000000, 4.000000, 4.000000
51.000000, 0.000000, 4491.281738, 4569.743652, 4147.179199, 4361.025391, 4331.281738, 0.000000, 8146.000000, 8341.000000, 0.000000, 0.000000, 0.000000, 2.000000, 96.199997, 1557654785.998690, 4.000000, 2.000000, 2.000000, 4.000000, 4.000000
52.000000, 0.000000, 4494.358887, 4582.563965, 4010.256348, 4345.127930, 4336.410156, 0.000000, 8146.000000, 8329.000000, 0.000000, 0.000000, 0.000000, 2.000000, 104.000000, 1557654786.006490, 4.000000, 2.000000, 2.000000, 4.000000, 4.000000
53.000000, 0.000000, 4501.025391, 4570.769043, 4041.025635, 4334.358887, 4348.205078, 0.000000, 8141.000000, 8346.000000, 0.000000, 0.000000, 0.000000, 2.000000, 111.799988, 1557654786.014290, 4.000000, 2.000000, 2.000000, 4.000000, 4.000000
54.000000, 0.000000, 4484.615234, 4566.153809, 4089.743408, 4338.461426, 4332.307617, 0.000000, 8146.000000, 8346.000000, 0.000000, 0.000000, 0.000000, 2.000000, 119.500000, 1557654786.021990, 4.000000, 2.000000, 2.000000, 4.000000, 4.000000
55.000000, 0.000000, 4487.692383, 4558.461426, 4071.794678, 4335.897461, 4325.641113, 0.000000, 8149.000000, 8339.000000, 0.000000, 0.000000, 0.000000, 2.000000, 127.500000, 1557654786.029990, 4.000000, 2.000000, 2.000000, 4.000000, 4.000000
56.000000, 0.000000, 4508.205078, 4544.615234, 4140.000000, 4340.512695, 4345.641113, 0.000000, 8145.000000, 8345.000000, 0.000000, 0.000000, 0.000000, 2.000000, 135.500000, 1557654786.037990, 4.000000, 2.000000, 2.000000, 4.000000, 4.000000
57.000000, 0.000000, 4495.897461, 4544.102539, 4016.410156, 4328.205078, 4342.051270, 0.000000, 8146.000000, 8348.000000, 0.000000, 0.000000, 0.000000, 2.000000, 143.500000, 1557654786.045990, 4.000000, 2.000000, 2.000000, 4.000000, 4.000000
58.000000, 0.000000, 4476.410156, 4538.461426, 4060.000000, 4329.230469, 4324.615234, 0.000000, 8146.000000, 8343.000000, 0.000000, 0.000000, 0.000000, 2.000000, 151.500000, 1557654786.053990, 4.000000, 2.000000, 2.000000, 4.000000, 4.000000
59.000000, 0.000000, 4490.769043, 4536.922852, 4150.769043, 4342.563965, 4346.666504, 0.000000, 8149.000000, 8339.000000, 0.000000, 0.000000, 0.000000, 2.000000, 159.500000, 1557654786.061990, 4.000000, 2.000000, 2.000000, 4.000000, 4.000000
60.000000, 0.000000, 4483.589844, 4531.281738, 4069.230713, 4294.871582, 4349.230469, 0.000000, 8147.000000, 8345.000000, 0.000000, 0.000000, 0.000000, 2.000000, 167.399994, 1557654786.069890, 4.000000, 2.000000, 2.000000, 4.000000, 4.000000
61.000000, 0.000000, 4458.461426, 4506.153809, 4093.333252, 4254.871582, 4307.179199, 0.000000, 8150.000000, 8336.000000, 0.000000, 0.000000, 0.000000, 2.000000, 175.199982, 1557654786.077690, 4.000000, 2.000000, 2.000000, 4.000000, 4.000000
62.000000, 0.000000, 4448.717773, 4493.333008, 4024.615234, 4264.102539, 4292.307617, 0.000000, 8145.000000, 8335.000000, 0.000000, 0.000000, 0.000000, 2.000000, 183.000000, 1557654786.085490, 4.000000, 2.000000, 2.000000, 4.000000, 4.000000
63.000000, 0.000000, 4431.281738, 4496.922852, 4076.923096, 4269.743652, 4294.358887, 0.000000, 8143.000000, 8346.000000, 0.000000, 0.000000, 0.000000, 2.000000, 190.799988, 1557654786.093290, 4.000000, 2.000000, 2.000000, 4.000000, 4.000000
64.000000, 0.000000, 4414.871582, 4485.641113, 4154.358887, 4259.487305, 4275.384277, 500.000000, 8146.000000, 8351.000000, 0.000000, 0.000000, 0.000000, 2.000000, 198.600006, 1557654786.101090, 4.000000, 2.000000, 2.000000, 4.000000, 4.000000
65.000000, 0.000000, 4420.000000, 4486.666504, 4045.128174, 4240.512695, 4264.615234, 500.000000, 8151.000000, 8339.000000, 0.000000, 0.000000, 0.000000, 2.000000, 206.500000, 1557654786.108990, 4.000000, 2.000000, 2.000000, 4.000000, 4.000000
66.000000, 0.000000, 4421.025391, 4495.897461, 4060.512695, 4215.897461, 4283.076660, 16193.000000, 8143.000000, 8345.000000, 0.000000, 0.000000, 0.000000, 2.000000, 214.500000, 1557654786.116990, 4.000000, 2.000000, 2.000000, 4.000000, 4.000000
67.000000, 0.000000, 4398.461426, 4473.333008, 4018.974365, 4207.692383, 4279.487305, 500.000000, 8150.000000, 8346.000000, 0.000000, 0.000000, 0.000000, 2.000000, 222.500000, 1557654786.124990, 4.000000, 2.000000, 2.000000, 4.000000, 4.000000
68.000000, 0.000000, 4383.076660, 4458.974121, 4085.640869, 4232.820313, 4254.358887, 16069.000000, 8144.000000, 8339.000000, 0.000000, 0.000000, 0.000000, 2.000000, 230.299988, 1557654786.132790, 4.000000, 4.000000, 2.000000, 4.000000, 4.000000
69.000000, 0.000000, 4386.153809, 4470.256348, 4164.102539, 4212.820313, 4251.794922, 500.000000, 8142.000000, 8343.000000, 0.000000, 0.000000, 0.000000, 2.000000, 238.100006, 1557654786.140590, 4.000000, 4.000000, 2.000000, 4.000000, 4.000000
70.000000, 0.000000, 4373.846191, 4457.435547, 4010.256348, 4147.179199, 4248.205078, 253.000000, 8145.000000, 8352.000000, 0.000000, 0.000000, 0.000000, 2.000000, 245.799988, 1557654786.148290, 4.000000, 4.000000, 2.000000, 4.000000, 4.000000
71.000000, 0.000000, 4355.384277, 4429.230469, 4042.563965, 4163.076660, 4249.743652, 500.000000, 8144.000000, 8353.000000, 0.000000, 0.000000, 0.000000, 2.000000, 253.600006, 1557654786.156090, 4.000000, 4.000000, 2.000000, 4.000000, 4.000000
72.000000, 0.000000, 4358.461426, 4437.435547, 4063.076904, 4212.307617, 4257.436035, 500.000000, 8142.000000, 8353.000000, 0.000000, 0.000000, 0.000000, 2.000000, 261.500000, 1557654786.163990, 4.000000, 4.000000, 2.000000, 4.000000, 4.000000
73.000000, 0.000000, 4351.794922, 4448.717773, 4081.025635, 4174.871582, 4244.615234, 16070.000000, 8141.000000, 8362.000000, 0.000000, 0.000000, 0.000000, 2.000000, 269.500000, 1557654786.171990, 4.000000, 4.000000, 2.000000, 4.000000, 4.000000
74.000000, 0.000000, 4320.512695, 4429.743652, 4142.563965, 4122.051270, 4230.256348, 500.000000, 8142.000000, 8359.000000, 0.000000, 0.000000, 0.000000, 2.000000, 277.500000, 1557654786.179990, 4.000000, 4.000000, 2.000000, 4.000000, 4.000000
75.000000, 0.000000, 4303.589844, 4417.948730, 4040.000000, 4140.000000, 4234.358887, 16181.000000, 8136.000000, 8347.000000, 0.000000, 0.000000, 0.000000, 2.000000, 285.500000, 1557654786.187990, 4.000000, 4.000000, 2.000000, 4.000000, 4.000000
76.000000, 0.000000, 4307.692383, 4432.820313, 4073.333252, 4163.589844, 4235.897461, 500.000000, 8134.000000, 8357.000000, 0.000000, 0.000000, 0.000000, 2.000000, 293.399994, 1557654786.195890, 4.000000, 4.000000, 2.000000, 4.000000, 4.000000
77.000000, 0.000000, 4298.461426, 4434.871582, 4040.512695, 4145.127930, 4211.794922, 500.000000, 8128.000000, 8355.000000, 0.000000, 0.000000, 0.000000, 2.000000, 301.199982, 1557654786.203690, 4.000000, 4.000000, 2.000000, 4.000000, 4.000000
78.000000, 0.000000, 4276.922852, 4421.025391, 4045.640869, 4133.846191, 4185.641113, 450.000000, 8133.000000, 8350.000000, 0.000000, 0.000000, 0.000000, 2.000000, 309.000000, 1557654786.211490, 4.000000, 4.000000, 2.000000, 4.000000, 4.000000
79.000000, 0.000000, 4265.641113, 4417.435547, 4149.230469, 4125.641113, 4175.384277, 16181.000000, 8134.000000, 8339.000000, 0.000000, 0.000000, 0.000000, 2.000000, 316.799988, 1557654786.219290, 4.000000, 4.000000, 2.000000, 4.000000, 4.000000
80.000000, 0.000000, 4263.076660, 4411.281738, 3992.820313, 4088.717773, 4171.794922, 450.000000, 8130.000000, 8349.000000, 0.000000, 0.000000, 0.000000, 2.000000, 324.600006, 1557654786.227090, 4.000000, 4.000000, 2.000000, 4.000000, 4.000000
81.000000, 0.000000, 4266.153809, 4387.179199, 3994.358887, 4063.589600, 4176.410156, 450.000000, 8128.000000, 8342.000000, 0.000000, 0.000000, 0.000000, 2.000000, 332.500000, 1557654786.234990, 4.000000, 4.000000, 2.000000, 4.000000, 4.000000
82.000000, 0.000000, 4254.358887, 4364.615234, 4066.666504, 4062.051270, 4176.922852, 450.000000, 8134.000000, 8335.000000, 0.000000, 0.000000, 0.000000, 2.000000, 340.500000, 1557654786.242990, 4.000000, 4.000000, 2.000000, 4.000000, 4.000000
83.000000, 0.000000, 4241.025391, 4383.589844, 4061.538330, 4063.589600, 4166.153809, 16181.000000, 8136.000000, 8340.000000, 0.000000, 0.000000, 0.000000, 2.000000, 348.500000, 1557654786.250990, 4.000000, 4.000000, 2.000000, 4.000000, 4.000000
84.000000, 0.000000, 4241.538574, 4418.974121, 4089.230713, 4062.563965, 4150.256348, 450.000000, 8138.000000, 8339.000000, 0.000000, 0.000000, 0.000000, 2.000000, 356.299988, 1557654786.258790, 4.000000, 4.000000, 2.000000, 4.000000, 4.000000
85.000000, 0.000000, 4234.871582, 4410.256348, 3967.179443, 4044.615234, 4136.410156, 450.000000, 8138.000000, 8334.000000, 0.000000, 0.000000, 0.000000, 2.000000, 364.100006, 1557654786.266590, 4.000000, 4.000000, 2.000000, 4.000000, 4.000000
86.000000, 0.000000, 4229.230469, 4375.897461, 4043.076904, 4033.333252, 4136.922852, 450.000000, 8141.000000, 8337.000000, 0.000000, 0.000000, 0.000000, 2.000000, 371.899994, 1557654786.274390, 4.000000, 4.000000, 2.000000, 4.000000, 4.000000
87.000000, 0.000000, 4229.230469, 4355.384277, 4109.743652, 4020.512695, 4142.051270, 16181.000000, 8145.000000, 8336.000000, 0.000000, 0.000000, 0.000000, 2.000000, 379.600006, 1557654786.282090, 4.000000, 4.000000, 2.000000, 4.000000, 4.000000
88.000000, 0.000000, 4209.743652, 4357.948730, 4018.461426, 3986.666504, 4118.461426, 450.000000, 8148.000000, 8328.000000, 0.000000, 0.000000, 0.000000, 2.000000, 387.399994, 1557654786.289890, 4.000000, 4.000000, 2.000000, 4.000000, 4.000000
89.000000, 0.000000, 4208.205078, 4373.333008, 4067.179443, 3997.948730, 4115.897461, 450.000000, 8142.000000, 8335.000000, 0.000000, 0.000000, 0.000000, 2.000000, 395.399994, 1557654786.297890, 4.000000, 4.000000, 2.000000, 4.000000, 4.000000
90.000000, 0.000000, 4225.641113, 4338.974121, 4022.563965, 4023.589600, 4154.871582, 450.000000, 8148.000000, 8342.000000, 0.000000, 0.000000, 0.000000, 2.000000, 403.399994, 1557654786.305890, 4.000000, 4.000000, 2.000000, 4.000000, 4.000000
91.000000, 0.000000, 4202.563965, 4305.127930, 4077.435791, 3993.845947, 4142.051270, 16181.000000, 8148.000000, 8330.000000, 0.000000, 0.000000, 0.000000, 2.000000, 411.399994, 1557654786.313890, 4.000000, 4.000000, 2.000000, 4.000000, 4.000000
92.000000, 0.000000, 4181.025391, 4348.717773, 4116.410156, 3957.435791, 4082.051270, 450.000000, 8154.000000, 8327.000000, 0.000000, 0.000000, 0.000000, 2.000000, 419.100006, 1557654786.321590, 4.000000, 4.000000, 2.000000, 4.000000, 4.000000
93.000000, 0.000000, 4185.641113, 4357.435547, 3998.974365, 3953.845947, 4064.615234, 450.000000, 8157.000000, 8336.000000, 0.000000, 0.000000, 0.000000, 2.000000, 426.899994, 1557654786.329390, 4.000000, 4.000000, 2.000000, 4.000000, 4.000000
94.000000, 0.000000, 4180.000000, 4323.076660, 4034.871582, 3958.461426, 4091.281982, 450.000000, 8151.000000, 8337.000000, 0.000000, 0.000000, 0.000000, 2.000000, 434.699982, 1557654786.337190, 4.000000, 4.000000, 2.000000, 4.000000, 4.000000
95.000000, 0.000000, 4182.563965, 4349.230469, 4004.615234, 3953.845947, 4106.153809, 16181.000000, 8165.000000, 8327.000000, 0.000000, 0.000000, 0.000000, 2.000000, 442.499969, 1557654786.344990, 4.000000, 4.000000, 2.000000, 4.000000, 4.000000
96.000000, 0.000000, 4182.563965, 4348.717773, 4061.025635, 3937.435791, 4087.179443, 450.000000, 8159.000000, 8331.000000, 0.000000, 0.000000, 0.000000, 2.000000, 450.399994, 1557654786.352890, 4.000000, 4.000000, 2.000000, 4.000000, 4.000000
97.000000, 0.000000, 4148.717773, 4288.717773, 4106.666504, 3888.205078, 4062.051270, 450.000000, 8155.000000, 8343.000000, 0.000000, 0.000000, 0.000000, 2.000000, 458.399994, 1557654786.360890, 4.000000, 4.000000, 2.000000, 4.000000, 4.000000
98.000000, 0.000000, 4134.871582, 4290.769043, 3969.743408, 3855.897461, 4057.948730, 450.000000, 8147.000000, 8343.000000, 0.000000, 0.000000, 0.000000, 2.000000, 466.300018, 1557654786.368790, 4.000000, 4.000000, 2.000000, 4.000000, 4.000000
99.000000, 0.000000, 4164.102539, 4315.897461, 4012.820313, 3875.384521, 4067.179443, 16181.000000, 8151.000000, 8343.000000, 0.000000, 0.000000, 0.000000, 2.000000, 474.300018, 1557654786.376790, 4.000000, 4.000000, 2.000000, 4.000000, 4.000000
100.000000, 0.000000, 4155.897461, 4293.846191, 3999.487061, 3853.845947, 4050.256348, 450.000000, 8152.000000, 8341.000000, 0.000000, 0.000000, 0.000000, 2.000000, 482.100006, 1557654786.384590, 4.000000, 4.000000, 2.000000, 4.000000, 4.000000
101.000000, 0.000000, 4120.000000, 4272.820313, 4051.281982, 3814.358887, 4024.615234, 450.000000, 8144.000000, 8345.000000, 0.000000, 0.000000, 0.000000, 2.000000, 489.899994, 1557654786.392390, 4.000000, 4.000000, 2.000000, 4.000000, 4.000000
102.000000, 0.000000, 4125.641113, 4277.436035, 4145.127930, 3835.384521, 4020.000000, 450.000000, 8143.000000, 8348.000000, 0.000000, 0.000000, 0.000000, 2.000000, 497.699982, 1557654786.400190, 4.000000, 4.000000, 2.000000, 4.000000, 4.000000
103.000000, 0.000000, 4136.410156, 4283.076660, 3995.384521, 3853.333252, 4018.461426, 16181.000000, 8136.000000, 8349.000000, 0.000000, 0.000000, 0.000000, 2.000000, 505.600006, 1557654786.408090, 4.000000, 4.000000, 2.000000, 4.000000, 4.000000
104.000000, 0.000000, 4114.358887, 4260.512695, 4006.153809, 3829.743408, 4013.333252, 450.000000, 8138.000000, 8344.000000, 0.000000, 0.000000, 0.000000, 2.000000, 513.399994, 1557654786.415890, 4.000000, 4.000000, 2.000000, 4.000000, 4.000000
105.000000, 0.000000, 4101.025391, 4240.512695, 4017.435791, 3848.717773, 4002.563965, 450.000000, 8136.000000, 8345.000000, 0.000000, 0.000000, 0.000000, 2.000000, 521.399994, 1557654786.423890, 4.000000, 4.000000, 2.000000, 4.000000, 4.000000
106.000000, 0.000000, 4103.589844, 4251.794922, 4042.051270, 3885.640869, 3993.845947, 450.000000, 8131.000000, 8354.000000, 0.000000, 0.000000, 0.000000, 2.000000, 529.399994, 1557654786.431890, 4.000000, 4.000000, 2.000000, 4.000000, 4.000000
107.000000, 0.000000, 4088.717773, 4252.820313, 4121.538574, 3843.589600, 3990.769043, 16181.000000, 8138.000000, 8349.000000, 0.000000, 0.000000, 0.000000, 2.000000, 537.399994, 1557654786.439890, 4.000000, 4.000000, 2.000000, 4.000000, 4.000000
108.000000, 0.000000, 4067.179443, 4238.461426, 3978.461426, 3807.692139, 3978.461426, 450.000000, 8140.000000, 8342.000000, 0.000000, 0.000000, 0.000000, 2.000000, 545.300018, 1557654786.447790, 4.000000, 4.000000, 2.000000, 4.000000, 4.000000
109.000000, 0.000000, 4071.794678, 4250.769043, 3997.435791, 3857.948730, 3975.384521, 450.000000, 8135.000000, 8345.000000, 0.000000, 0.000000, 0.000000, 2.000000, 553.100006, 1557654786.455590, 4.000000, 4.000000, 2.000000, 4.000000, 4.000000
110.000000, 0.000000, 4096.922852, 4258.974121, 4043.076904, 3889.743408, 3985.128174, 450.000000, 8143.000000, 8356.000000, 0.000000, 0.000000, 0.000000, 2.000000, 560.899994, 1557654786.463390, 4.000000, 4.000000, 2.000000, 4.000000, 4.000000
111.000000, 0.000000, 4108.717773, 4247.692383, 4038.974365, 3875.384521, 3990.256348, 16181.000000, 8139.000000, 8351.000000, 0.000000, 0.000000, 0.000000, 2.000000, 568.699982, 1557654786.471190, 4.000000, 4.000000, 2.000000, 4.000000, 4.000000
112.000000, 0.000000, 4107.692383, 4258.461426, 4088.717773, 3885.640869, 3990.256348, 450.000000, 8142.000000, 8353.000000, 0.000000, 0.000000, 0.000000, 2.000000, 576.499969, 1557654786.478990, 4.000000, 4.000000, 2.000000, 4.000000, 4.000000
113.000000, 0.000000, 4091.794678, 4259.487305, 3969.743408, 3877.948730, 3969.230713, 450.000000, 8140.000000, 8353.000000, 0.000000, 0.000000, 0.000000, 2.000000, 584.499969, 1557654786.486990, 4.000000, 4.000000, 2.000000, 4.000000, 4.000000
114.000000, 0.000000, 4075.897217, 4227.692383, 4031.281982, 3854.871582, 3941.538330, 450.000000, 8151.000000, 8360.000000, 0.000000, 0.000000, 0.000000, 2.000000, 592.399994, 1557654786.494890, 4.000000, 4.000000, 2.000000, 4.000000, 4.000000
115.000000, 0.000000, 4068.205078, 4210.256348, 4087.179443, 3829.743408, 3930.256348, 16181.000000, 8146.000000, 8360.000000, 0.000000, 0.000000, 0.000000, 2.000000, 600.399994, 1557654786.502890, 4.000000, 4.000000, 2.000000, 4.000000, 4.000000
116.000000, 0.000000, 4041.025635, 4204.615234, 4029.230713, 3769.743408, 3902.563965, 450.000000, 8145.000000, 8356.000000, 0.000000, 0.000000, 0.000000, 2.000000, 608.399994, 1557654786.510890, 4.000000, 4.000000, 2.000000, 4.000000, 4.000000
117.000000, 0.000000, 4027.179443, 4200.000000, 4090.256348, 3763.589600, 3874.871582, 450.000000, 8148.000000, 8350.000000, 0.000000, 0.000000, 0.000000, 2.000000, 616.399994, 1557654786.518890, 4.000000, 4.000000, 2.000000, 4.000000, 4.000000
118.000000, 0.000000, 4040.512695, 4210.256348, 4013.845947, 3809.230713, 3877.948730, 450.000000, 8151.000000, 8355.000000, 0.000000, 0.000000, 0.000000, 2.000000, 624.199982, 1557654786.526690, 4.000000, 4.000000, 2.000000, 4.000000, 4.000000
119.000000, 0.000000, 4040.512695, 4216.922852, 4065.128174, 3800.512695, 3884.102539, 16181.000000, 8145.000000, 8366.000000, 0.000000, 0.000000, 0.000000, 2.000000, 631.899994, 1557654786.534390, 4.000000, 4.000000, 2.000000, 4.000000, 4.000000
120.000000, 0.000000, 4023.589600, 4211.794922, 4124.102539, 3770.256348, 3874.358887, 450.000000, 8150.000000, 8360.000000, 0.000000, 0.000000, 0.000000, 2.000000, 639.699982, 1557654786.542190, 4.000000, 4.000000, 2.000000, 4.000000, 4.000000
121.000000, 0.000000, 4023.589600, 4217.436035, 4025.128174, 3805.640869, 3860.512695, 450.000000, 8153.000000, 8344.000000, 0.000000, 0.000000, 0.000000, 2.000000, 647.499969, 1557654786.549990, 4.000000, 4.000000, 2.000000, 4.000000, 4.000000
122.000000, 0.000000, 4042.563965, 4226.666504, 4055.384521, 3849.743408, 3863.589600, 450.000000, 8153.000000, 8341.000000, 0.000000, 0.000000, 0.000000, 2.000000, 655.499969, 1557654786.557990, 4.000000, 4.000000, 2.000000, 4.000000, 4.000000
123.000000, 0.000000, 4042.563965, 4214.358887, 3998.461426, 3812.820313, 3868.205078, 16181.000000, 8153.000000, 8357.000000, 0.000000, 0.000000, 0.000000, 2.000000, 663.499969, 1557654786.565990, 4.000000, 4.000000, 2.000000, 4.000000, 4.000000
124.000000, 0.000000, 4034.871582, 4200.000000, 4059.487061, 3769.230713, 3864.615234, 450.000000, 8145.000000, 8348.000000, 0.000000, 0.000000, 0.000000, 2.000000, 671.499969, 1557654786.573990, 4.000000, 4.000000, 2.000000, 4.000000, 4.000000
125.000000, 0.000000, 4042.051270, 4210.769043, 4130.769043, 3784.615234, 3863.076904, 450.000000, 8143.000000, 8344.000000, 0.000000, 0.000000, 0.000000, 2.000000, 679.399994, 1557654786.581890, 4.000000, 4.000000, 2.000000, 4.000000, 4.000000
126.000000, 0.000000, 4048.205078, 4222.051270, 4001.025635, 3821.538330, 3856.923096, 450.000000, 8144.000000, 8349.000000, 0.000000, 0.000000, 0.000000, 2.000000, 687.199982, 1557654786.589690, 4.000000, 4.000000, 2.000000, 4.000000, 4.000000
127.000000, 0.000000, 4050.769043, 4225.641113, 4029.743408, 3828.205078, 3847.692139, 16181.000000, 8142.000000, 8352.000000, 0.000000, 0.000000, 0.000000, 2.000000, 694.999969, 1557654786.597490, 4.000000, 4.000000, 2.000000, 4.000000, 4.000000
128.000000, 0.000000, 4037.435791, 4229.743652, 4012.307617, 3797.948730, 3835.384521, 500.000000, 8141.000000, 8353.000000, 0.000000, 0.000000, 0.000000, 2.000000, 702.800018, 1557654786.605290, 4.000000, 4.000000, 2.000000, 4.000000, 4.000000
0.000000, 0.000000, 4004.102539, 4203.076660, 4061.025635, 3790.769043, 3802.563965, 500.000000, 8141.000000, 8354.000000, 0.000000, 0.000000, 0.000000, 2.000000, 710.600006, 1557654786.613090, 4.000000, 4.000000, 2.000000, 4.000000, 4.000000
1.000000, 0.000000, 3987.692139, 4173.333008, 4128.205078, 3798.974365, 3771.794678, 500.000000, 8142.000000, 8343.000000, 0.000000, 0.000000, 0.000000, 2.000000, 718.499969, 1557654786.620990, 4.000000, 4.000000, 2.000000, 4.000000, 4.000000
2.000000, 0.000000, 4010.769043, 4189.743652, 3989.743408, 3803.076904, 3786.153809, 16189.000000, 8140.000000, 8348.000000, 0.000000, 0.000000, 0.000000, 2.000000, 726.499969, 1557654786.628990, 4.000000, 4.000000, 2.000000, 4.000000, 4.000000
3.000000, 0.000000, 4030.769043, 4210.256348, 3997.435791, 3831.281982, 3796.410156, 500.000000, 8133.000000, 8352.000000, 0.000000, 0.000000, 0.000000, 2.000000, 734.499969, 1557654786.636990, 4.000000, 4.000000, 2.000000, 4.000000, 4.000000
4.000000, 0.000000, 4012.820313, 4200.000000, 3976.410156, 3830.256348, 3763.076904, 16078.000000, 8141.000000, 8352.000000, 0.000000, 0.000000, 0.000000, 2.000000, 742.499969, 1557654786.644990, 4.000000, 4.000000, 2.000000, 4.000000, 4.000000
5.000000, 0.000000, 3989.230713, 4200.000000, 4015.897217, 3790.769043, 3752.820313, 500.000000, 8141.000000, 8342.000000, 0.000000, 0.000000, 0.000000, 2.000000, 750.499969, 1557654786.652990, 4.000000, 4.000000, 2.000000, 4.000000, 4.000000
6.000000, 0.000000, 3982.563965, 4199.487305, 4097.948730, 3804.615234, 3769.230713, 265.000000, 8143.000000, 8342.000000, 0.000000, 0.000000, 0.000000, 2.000000, 758.300018, 1557654786.660790, 4.000000, 4.000000, 2.000000, 4.000000, 4.000000
7.000000, 0.000000, 3982.563965, 4178.974121, 3953.333252, 3845.640869, 3762.563965, 500.000000, 8143.000000, 8353.000000, 0.000000, 0.000000, 0.000000, 2.000000, 765.999969, 1557654786.668490, 4.000000, 4.000000, 2.000000, 4.000000, 4.000000
8.000000, 0.000000, 3977.435791, 4180.000000, 3980.000000, 3846.153809, 3733.333252, 500.000000, 8149.000000, 8345.000000, 0.000000, 0.000000, 0.000000, 2.000000, 773.800018, 1557654786.676290, 4.000000, 4.000000, 2.000000, 4.000000, 4.000000
9.000000, 0.000000, 3975.384521, 4191.794922, 4022.563965, 3836.923096, 3718.974365, 16089.000000, 8146.000000, 8342.000000, 0.000000, 0.000000, 0.000000, 2.000000, 781.600006, 1557654786.684090, 4.000000, 4.000000, 2.000000, 4.000000, 4.000000
10.000000, 0.000000, 3993.333252, 4178.461426, 4035.384521, 3846.153809, 3727.179443, 500.000000, 8151.000000, 8342.000000, 0.000000, 0.000000, 0.000000, 2.000000, 789.499969, 1557654786.691990, 4.000000, 4.000000, 2.000000, 4.000000, 4.000000
11.000000, 0.000000, 4015.897217, 4181.538574, 4080.000000, 3859.487061, 3736.410156, 16190.000000, 8150.000000, 8342.000000, 0.000000, 0.000000, 0.000000, 2.000000, 797.499969, 1557654786.699990, 4.000000, 4.000000, 2.000000, 4.000000, 4.000000
12.000000, 0.000000, 4009.230713, 4203.076660, 3944.102539, 3868.717773, 3722.563965, 500.000000, 8152.000000, 8339.000000, 0.000000, 0.000000, 0.000000, 2.000000, 805.399994, 1557654786.707890, 4.000000, 4.000000, 2.000000, 4.000000, 4.000000
13.000000, 0.000000, 4005.640869, 4210.769043, 3991.794678, 3889.230713, 3716.923096, 500.000000, 8158.000000, 8348.000000, 0.000000, 0.000000, 0.000000, 2.000000, 813.199982, 1557654786.715690, 4.000000, 4.000000, 2.000000, 4.000000, 4.000000
14.000000, 0.000000, 4024.102539, 4215.897461, 4036.410156, 3902.051270, 3742.563965, 450.000000, 8157.000000, 8339.000000, 0.000000, 0.000000, 0.000000, 2.000000, 820.999969, 1557654786.723490, 4.000000, 4.000000, 2.000000, 4.000000, 4.000000
15.000000, 0.000000, 4021.538330, 4221.025391, 4007.692139, 3904.102539, 3739.487061, 16190.000000, 8156.000000, 8340.000000, 0.000000, 0.000000, 0.000000, 2.000000, 828.800018, 1557654786.731290, 4.000000, 4.000000, 2.000000, 4.000000, 4.000000
16.000000, 0.000000, 4021.538330, 4222.563965, 4085.640869, 3918.461426, 3724.102539, 0.000000, 8156.000000, 8348.000000, 0.000000, 0.000000, 0.000000, 2.000000, 836.600006, 1557654786.739090, 4.000000, 4.000000, 2.000000, 4.000000, 4.000000
17.000000, 0.000000, 4024.102539, 4211.794922, 3982.563965, 3889.230713, 3723.589600, 0.000000, 8153.000000, 8341.000000, 0.000000, 0.000000, 0.000000, 2.000000, 844.399994, 1557654786.746890, 4.000000, 4.000000, 2.000000, 4.000000, 4.000000
18.000000, 0.000000, 3997.948730, 4202.051270, 4011.794678, 3863.076904, 3708.717773, 0.000000, 8156.000000, 8334.000000, 0.000000, 0.000000, 0.000000, 2.000000, 852.399994, 1557654786.754890, 4.000000, 4.000000, 2.000000, 4.000000, 4.000000
19.000000, 0.000000, 3986.153809, 4215.384277, 4063.589600, 3891.281982, 3687.692139, 0.000000, 8159.000000, 8333.000000, 0.000000, 0.000000, 0.000000, 2.000000, 860.399994, 1557654786.762890, 4.000000, 4.000000, 2.000000, 4.000000, 4.000000
20.000000, 0.000000, 3994.358887, 4211.281738, 3995.897217, 3878.461426, 3672.820313, 0.000000, 8155.000000, 8346.000000, 0.000000, 0.000000, 0.000000, 2.000000, 868.399994, 1557654786.770890, 4.000000, 4.000000, 2.000000, 4.000000, 4.000000
21.000000, 0.000000, 3984.102539, 4202.563965, 4061.538330, 3854.358887, 3667.692139, 0.000000, 8150.000000, 8347.000000, 0.000000, 0.000000, 0.000000, 2.000000, 876.399994, 1557654786.778890, 4.000000, 4.000000, 2.000000, 4.000000, 4.000000
22.000000, 0.000000, 3972.307617, 4226.666504, 4009.743408, 3882.563965, 3663.589600, 0.000000, 8146.000000, 8338.000000, 0.000000, 0.000000, 0.000000, 2.000000, 884.199993, 1557654786.786690, 4.000000, 4.000000, 2.000000, 4.000000, 4.000000
23.000000, 0.000000, 3969.743408, 4237.436035, 4058.461426, 3889.743408, 3649.230713, 0.000000, 8150.000000, 8343.000000, 0.000000, 0.000000, 0.000000, 2.000000, 891.899994, 1557654786.794390, 4.000000, 4.000000, 2.000000, 4.000000, 4.000000
24.000000, 0.000000, 3970.256348, 4226.153809, 4111.794922, 3867.179443, 3638.461426, 0.000000, 8149.000000, 8346.000000, 0.000000, 0.000000, 0.000000, 2.000000, 899.699993, 1557654786.802190, 4.000000, 4.000000, 2.000000, 4.000000, 4.000000
25.000000, 0.000000, 3987.692139, 4242.563965, 4008.717773, 3887.179443, 3648.717773, 0.000000, 8147.000000, 8354.000000, 0.000000, 0.000000, 0.000000, 2.000000, 907.599995, 1557654786.810090, 4.000000, 4.000000, 2.000000, 4.000000, 4.000000
26.000000, 0.000000, 4005.128174, 4257.436035, 4044.615234, 3899.487061, 3661.538330, 0.000000, 8143.000000, 8356.000000, 0.000000, 0.000000, 0.000000, 2.000000, 915.599995, 1557654786.818090, 4.000000, 4.000000, 2.000000, 4.000000, 4.000000
27.000000, 0.000000, 3987.692139, 4237.948730, 3997.435791, 3837.435791, 3648.205078, 0.000000, 8144.000000, 8362.000000, 0.000000, 0.000000, 0.000000, 2.000000, 923.599995, 1557654786.826090, 4.000000, 4.000000, 2.000000, 4.000000, 4.000000
28.000000, 0.000000, 3965.128174, 4235.384277, 4056.410156, 3779.487061, 3643.589600, 0.000000, 8132.000000, 8349.000000, 0.000000, 0.000000, 0.000000, 2.000000, 931.499992, 1557654786.833990, 4.000000, 4.000000, 2.000000, 4.000000, 4.000000
29.000000, 0.000000, 3966.666504, 4238.461426, 4129.230469, 3785.640869, 3647.179443, 0.000000, 8133.000000, 8353.000000, 0.000000, 0.000000, 0.000000, 2.000000, 939.499992, 1557654786.841990, 4.000000, 4.000000, 2.000000, 4.000000, 4.000000
30.000000, 0.000000, 3977.948730, 4245.127930, 3978.461426, 3808.717773, 3634.358887, 0.000000, 8140.000000, 8353.000000, 0.000000, 0.000000, 0.000000, 2.000000, 947.499992, 1557654786.849990, 4.000000, 4.000000, 2.000000, 4.000000, 4.000000
31.000000, 0.000000, 3979.487061, 4283.589844, 3998.974365, 3821.025635, 3625.640869, 0.000000, 8142.000000, 8345.000000, 0.000000, 0.000000, 0.000000, 2.000000, 955.299995, 1557654786.857790, 4.000000, 4.000000, 2.000000, 4.000000, 4.000000
32.000000, 0.000000, 3970.256348, 4298.461426, 4003.076904, 3822.563965, 3615.897461, 0.000000, 8142.000000, 8341.000000, 0.000000, 0.000000, 0.000000, 2.000000, 963.099991, 1557654786.865590, 4.000000, 4.000000, 2.000000, 4.000000, 4.000000
33.000000, 0.000000, 3973.845947, 4288.205078, 4054.358887, 3812.307617, 3600.000000, 0.000000, 8140.000000, 8350.000000, 0.000000, 0.000000, 0.000000, 2.000000, 970.899994, 1557654786.873390, 4.000000, 4.000000, 2.000000, 4.000000, 4.000000
34.000000, 0.000000, 3980.000000, 4283.589844, 4132.820313, 3808.717773, 3588.717773, 0.000000, 8135.000000, 8353.000000, 0.000000, 0.000000, 0.000000, 2.000000, 978.599991, 1557654786.881090, 4.000000, 4.000000, 2.000000, 4.000000, 4.000000
35.000000, 0.000000, 3956.410156, 4264.615234, 3998.974365, 3818.461426, 3567.692139, 0.000000, 8138.000000, 8343.000000, 0.000000, 0.000000, 0.000000, 2.000000, 986.499992, 1557654786.888990, 4.000000, 4.000000, 2.000000, 4.000000, 4.000000
36.000000, 0.000000, 3935.384521, 4256.922852, 4039.487061, 3838.461426, 3550.256348, 0.000000, 8144.000000, 8342.000000, 0.000000, 0.000000, 0.000000, 2.000000, 994.500000, 1557654786.896990, 4.000000, 4.000000, 2.000000, 4.000000, 4.000000
37.000000, 0.000000, 3942.563965, 4284.615234, 4059.487061, 3834.358887, 3556.410156, 0.000000, 8146.000000, 8347.000000, 0.000000, 0.000000, 0.000000, 3.000000, 2.500000, 1557654786.904990, 4.000000, 4.000000, 2.000000, 4.000000, 4.000000
38.000000, 0.000000, 3946.666504, 4280.000000, 4066.153809, 3809.230713, 3555.384521, 0.000000, 8154.000000, 8346.000000, 0.000000, 0.000000, 0.000000, 3.000000, 10.500000, 1557654786.912990, 4.000000, 4.000000, 2.000000, 4.000000, 4.000000
39.000000, 0.000000, 3943.589600, 4255.384277, 4142.563965, 3819.487061, 3528.717773, 0.000000, 8155.000000, 8345.000000, 0.000000, 0.000000, 0.000000, 3.000000, 18.199997, 1557654786.920690, 4.000000, 4.000000, 2.000000, 4.000000, 4.000000
40.000000, 0.000000, 3951.794678, 4281.025391, 4024.102539, 3831.794678, 3520.512695, 0.000000, 8157.000000, 8339.000000, 0.000000, 0.000000, 0.000000, 3.000000, 26.000000, 1557654786.928490, 4.000000, 4.000000, 2.000000, 4.000000, 4.000000
41.000000, 0.000000, 3968.717773, 4293.846191, 4047.692139, 3841.025635, 3545.128174, 0.000000, 8161.000000, 8335.000000, 0.000000, 0.000000, 0.000000, 3.000000, 33.799988, 1557654786.936290, 4.000000, 4.000000, 2.000000, 4.000000, 4.000000
42.000000, 0.000000, 3980.000000, 4293.846191, 4069.230713, 3850.256348, 3557.948730, 0.000000, 8159.000000, 8329.000000, 0.000000, 0.000000, 0.000000, 3.000000, 41.599991, 1557654786.944090, 4.000000, 4.000000, 2.000000, 4.000000, 4.000000
43.000000, 0.000000, 3982.051270, 4309.230469, 4060.000000, 3843.589600, 3539.487061, 0.000000, 8165.000000, 8342.000000, 0.000000, 0.000000, 0.000000, 3.000000, 49.599991, 1557654786.952090, 4.000000, 4.000000, 2.000000, 4.000000, 4.000000
44.000000, 0.000000, 3972.820313, 4296.922852, 4128.205078, 3848.205078, 3513.333252, 0.000000, 8165.000000, 8335.000000, 0.000000, 0.000000, 0.000000, 3.000000, 57.599991, 1557654786.960090, 4.000000, 4.000000, 2.000000, 4.000000, 4.000000
45.000000, 0.000000, 3950.769043, 4290.256348, 3995.384521, 3839.487061, 3501.538330, 0.000000, 8162.000000, 8339.000000, 0.000000, 0.000000, 0.000000, 3.000000, 65.500000, 1557654786.967990, 4.000000, 4.000000, 2.000000, 4.000000, 4.000000
46.000000, 0.000000, 3946.153809, 4312.307617, 4036.410156, 3820.000000, 3513.333252, 0.000000, 8156.000000, 8349.000000, 0.000000, 0.000000, 0.000000, 3.000000, 73.399994, 1557654786.975890, 4.000000, 4.000000, 2.000000, 4.000000, 4.000000
47.000000, 0.000000, 3956.923096, 4298.974121, 4106.153809, 3811.794678, 3503.076904, 0.000000, 8155.000000, 8344.000000, 0.000000, 0.000000, 0.000000, 3.000000, 81.199997, 1557654786.983690, 4.000000, 4.000000, 2.000000, 4.000000, 4.000000
48.000000, 0.000000, 3946.666504, 4268.717773, 4040.512695, 3822.051270, 3468.717773, 0.000000, 8158.000000, 8339.000000, 0.000000, 0.000000, 0.000000, 3.000000, 89.000000, 1557654786.991490, 4.000000, 4.000000, 2.000000, 4.000000, 4.000000
49.000000, 0.000000, 3932.307617, 4294.871582, 4081.025635, 3830.769043, 3463.076904, 0.000000, 8155.000000, 8334.000000, 0.000000, 0.000000, 0.000000, 3.000000, 96.799988, 1557654786.999290, 4.000000, 4.000000, 2.000000, 4.000000, 4.000000
50.000000, 0.000000, 3943.076904, 4326.153809, 4009.743408, 3813.333252, 3477.948730, 0.000000, 8154.000000, 8334.000000, 0.000000, 0.000000, 0.000000, 3.000000, 104.500000, 1557654787.006990, 4.000000, 4.000000, 2.000000, 4.000000, 4.000000
51.000000, 0.000000, 3961.025635, 4326.153809, 4067.692139, 3797.435791, 3482.051270, 0.000000, 8151.000000, 8341.000000, 0.000000, 0.000000, 0.000000, 3.000000, 112.500000, 1557654787.014990, 4.000000, 4.000000, 2.000000, 4.000000, 4.000000
52.000000, 0.000000, 3960.512695, 4325.127930, 4120.000000, 3791.794678, 3475.384521, 0.000000, 8148.000000, 8339.000000, 0.000000, 0.000000, 0.000000, 3.000000, 120.500000, 1557654787.022990, 4.000000, 4.000000, 2.000000, 4.000000, 4.000000
53.000000, 0.000000, 3950.256348, 4304.102539, 4019.487061, 3826.153809, 3462.563965, 0.000000, 8146.000000, 8343.000000, 0.000000, 0.000000, 0.000000, 3.000000, 128.500000, 1557654787.030990, 4.000000, 4.000000, 2.000000, 4.000000, 4.000000
54.000000, 0.000000, 3948.717773, 4293.846191, 4060.512695, 3852.307617, 3445.640869, 0.000000, 8151.000000, 8339.000000, 0.000000, 0.000000, 0.000000, 3.000000, 136.500000, 1557654787.038990, 4.000000, 4.000000, 2.000000, 4.000000, 4.000000
55.000000, 0.000000, 3964.102539, 4314.358887, 4021.025635, 3810.256348, 3444.615234, 0.000000, 8144.000000, 8351.000000, 0.000000, 0.000000, 0.000000, 3.000000, 144.199982, 1557654787.046690, 4.000000, 4.000000, 2.000000, 4.000000, 4.000000
56.000000, 0.000000, 3977.948730, 4322.563965, 4091.794678, 3825.640869, 3453.846191, 0.000000, 8136.000000, 8355.000000, 0.000000, 0.000000, 0.000000, 3.000000, 152.000000, 1557654787.054490, 4.000000, 4.000000, 2.000000, 4.000000, 4.000000
57.000000, 0.000000, 3983.076904, 4333.846191, 4156.410156, 3916.923096, 3462.563965, 0.000000, 8137.000000, 8355.000000, 0.000000, 0.000000, 0.000000, 3.000000, 159.799988, 1557654787.062290, 4.000000, 4.000000, 2.000000, 4.000000, 4.000000
58.000000, 0.000000, 3988.205078, 4348.205078, 4012.820313, 3916.923096, 3472.820313, 0.000000, 8137.000000, 8346.000000, 0.000000, 0.000000, 0.000000, 3.000000, 167.600006, 1557654787.070090, 4.000000, 4.000000, 2.000000, 4.000000, 4.000000
59.000000, 0.000000, 3985.640869, 4330.256348, 4034.871582, 3848.717773, 3469.230713, 0.000000, 8136.000000, 8364.000000, 0.000000, 0.000000, 0.000000, 3.000000, 175.500000, 1557654787.077990, 4.000000, 4.000000, 2.000000, 4.000000, 4.000000
60.000000, 0.000000, 3983.076904, 4317.436035, 4018.974365, 3856.410156, 3461.538330, 0.000000, 8134.000000, 8359.000000, 0.000000, 0.000000, 0.000000, 3.000000, 183.500000, 1557654787.085990, 4.000000, 4.000000, 2.000000, 4.000000, 4.000000
61.000000, 0.000000, 3987.179443, 4348.717773, 4073.333252, 3906.666504, 3465.128174, 0.000000, 8141.000000, 8349.000000, 0.000000, 0.000000, 0.000000, 3.000000, 191.399994, 1557654787.093890, 4.000000, 4.000000, 2.000000, 4.000000, 4.000000
62.000000, 0.000000, 3991.794678, 4376.922852, 4156.922852, 3900.000000, 3467.692139, 0.000000, 8145.000000, 8351.000000, 0.000000, 0.000000, 0.000000, 3.000000, 199.399994, 1557654787.101890, 4.000000, 4.000000, 2.000000, 4.000000, 4.000000
63.000000, 0.000000, 3989.743408, 4360.000000, 4026.153809, 3872.307617, 3458.461426, 0.000000, 8145.000000, 8357.000000, 0.000000, 0.000000, 0.000000, 3.000000, 207.199982, 1557654787.109690, 4.000000, 4.000000, 2.000000, 4.000000, 4.000000
64.000000, 0.000000, 3990.256348, 4345.127930, 4055.384521, 3884.102539, 3460.512695, 500.000000, 8142.000000, 8356.000000, 0.000000, 0.000000, 0.000000, 3.000000, 215.000000, 1557654787.117490, 4.000000, 4.000000, 2.000000, 4.000000, 4.000000
65.000000, 0.000000, 3998.974365, 4360.512695, 4062.563965, 3899.487061, 3472.307617, 500.000000, 8145.000000, 8355.000000, 0.000000, 0.000000, 0.000000, 3.000000, 222.799988, 1557654787.125290, 4.000000, 4.000000, 2.000000, 4.000000, 4.000000
66.000000, 0.000000, 4003.589600, 4367.692383, 4095.897217, 3915.897461, 3474.358887, 16195.000000, 8145.000000, 8352.000000, 0.000000, 0.000000, 0.000000, 3.000000, 230.600006, 1557654787.133090, 4.000000, 4.000000, 2.000000, 4.000000, 4.000000
67.000000, 0.000000, 4003.076904, 4376.922852, 4172.307617, 3915.897461, 3474.871826, 500.000000, 8153.000000, 8352.000000, 0.000000, 0.000000, 0.000000, 3.000000, 238.600006, 1557654787.141090, 4.000000, 4.000000, 2.000000, 4.000000, 4.000000
68.000000, 0.000000, 3997.435791, 4389.743652, 4031.794678, 3895.897461, 3462.051270, 16074.000000, 8153.000000, 8349.000000, 0.000000, 0.000000, 0.000000, 3.000000, 246.500000, 1557654787.148990, 4.000000, 4.000000, 2.000000, 4.000000, 4.000000
69.000000, 0.000000, 3995.897217, 4375.897461, 4068.205078, 3922.051270, 3456.410156, 500.000000, 8149.000000, 8359.000000, 0.000000, 0.000000, 0.000000, 3.000000, 254.500000, 1557654787.156990, 4.000000, 4.000000, 2.000000, 4.000000, 4.000000
70.000000, 0.000000, 3996.410156, 4364.102539, 4114.358887, 3931.281982, 3473.333252, 255.000000, 8143.000000, 8356.000000, 0.000000, 0.000000, 0.000000, 3.000000, 262.500000, 1557654787.164990, 4.000000, 4.000000, 2.000000, 4.000000, 4.000000
71.000000, 0.000000, 4003.076904, 4380.512695, 4118.461426, 3906.666504, 3480.000000, 500.000000, 8152.000000, 8344.000000, 0.000000, 0.000000, 0.000000, 3.000000, 270.500000, 1557654787.172990, 4.000000, 4.000000, 2.000000, 4.000000, 4.000000
72.000000, 0.000000, 4028.717773, 4397.435547, 4174.358887, 3931.281982, 3482.051270, 500.000000, 8151.000000, 8348.000000, 0.000000, 0.000000, 0.000000, 3.000000, 278.199982, 1557654787.180690, 4.000000, 4.000000, 2.000000, 4.000000, 4.000000
73.000000, 0.000000, 4030.256348, 4400.000000, 4036.410156, 3952.307617, 3482.563965, 16105.000000, 8154.000000, 8358.000000, 0.000000, 0.000000, 0.000000, 3.000000, 286.000000, 1557654787.188490, 4.000000, 4.000000, 2.000000, 4.000000, 4.000000
74.000000, 0.000000, 4012.307617, 4400.512695, 4072.307617, 3931.794678, 3480.512695, 500.000000, 8152.000000, 8346.000000, 0.000000, 0.000000, 0.000000, 3.000000, 293.799988, 1557654787.196290, 4.000000, 4.000000, 2.000000, 4.000000, 4.000000
75.000000, 0.000000, 4026.153809, 4397.435547, 4133.333008, 3938.461426, 3488.717773, 16179.000000, 8159.000000, 8344.000000, 0.000000, 0.000000, 0.000000, 3.000000, 301.600006, 1557654787.204090, 4.000000, 4.000000, 2.000000, 4.000000, 4.000000
76.000000, 0.000000, 4033.845947, 4392.307617, 4095.384521, 3961.025635, 3486.666504, 500.000000, 8155.000000, 8350.000000, 0.000000, 0.000000, 0.000000, 3.000000, 309.500000, 1557654787.211990, 4.000000, 4.000000, 2.000000, 4.000000, 4.000000
77.000000, 0.000000, 4015.384521, 4407.692383, 4141.025391, 3965.640869, 3478.461426, 500.000000, 8149.000000, 8343.000000, 0.000000, 0.000000, 0.000000, 3.000000, 317.399994, 1557654787.219890, 4.000000, 4.000000, 2.000000, 4.000000, 4.000000
78.000000, 0.000000, 4014.871582, 4425.127930, 4052.820313, 3974.871582, 3494.871826, 450.000000, 8151.000000, 8340.000000, 0.000000, 0.000000, 0.000000, 3.000000, 325.399994, 1557654787.227890, 4.000000, 4.000000, 2.000000, 4.000000, 4.000000
79.000000, 0.000000, 4032.820313, 4417.948730, 4107.692383, 3980.000000, 3517.948730, 16179.000000, 8152.000000, 8344.000000, 0.000000, 0.000000, 0.000000, 3.000000, 333.399994, 1557654787.235890, 4.000000, 4.000000, 2.000000, 4.000000, 4.000000
80.000000, 0.000000, 4044.615234, 4412.820313, 4156.922852, 3985.640869, 3523.076904, 450.000000, 8154.000000, 8340.000000, 0.000000, 0.000000, 0.000000, 3.000000, 341.399994, 1557654787.243890, 4.000000, 4.000000, 2.000000, 4.000000, 4.000000
81.000000, 0.000000, 4058.461426, 4428.717773, 4088.717773, 3998.461426, 3535.384521, 450.000000, 8150.000000, 8342.000000, 0.000000, 0.000000, 0.000000, 3.000000, 349.199982, 1557654787.251690, 4.000000, 4.000000, 2.000000, 4.000000, 4.000000
82.000000, 0.000000, 4078.461426, 4447.179199, 4147.692383, 4002.563965, 3561.538330, 450.000000, 8152.000000, 8348.000000, 0.000000, 0.000000, 0.000000, 3.000000, 357.000000, 1557654787.259490, 4.000000, 4.000000, 2.000000, 4.000000, 4.000000
83.000000, 0.000000, 4083.076904, 4454.871582, 4065.640869, 3992.307617, 3573.845947, 16179.000000, 8146.000000, 8343.000000, 0.000000, 0.000000, 0.000000, 3.000000, 364.699982, 1557654787.267190, 4.000000, 4.000000, 2.000000, 4.000000, 4.000000
84.000000, 0.000000, 4072.820313, 4452.307617, 4120.000000, 3982.563965, 3565.128174, 450.000000, 8151.000000, 8328.000000, 0.000000, 0.000000, 0.000000, 3.000000, 372.500000, 1557654787.274990, 4.000000, 4.000000, 2.000000, 4.000000, 4.000000
85.000000, 0.000000, 4055.384521, 4437.435547, 4206.153809, 3982.051270, 3540.512695, 450.000000, 8146.000000, 8335.000000, 0.000000, 0.000000, 0.000000, 3.000000, 380.499969, 1557654787.282990, 4.000000, 4.000000, 2.000000, 4.000000, 4.000000
86.000000, 0.000000, 4047.179443, 4435.897461, 4087.179443, 3997.948730, 3537.948730, 450.000000, 8145.000000, 8345.000000, 0.000000, 0.000000, 0.000000, 3.000000, 388.499969, 1557654787.290990, 4.000000, 4.000000, 2.000000, 4.000000, 4.000000
87.000000, 0.000000, 4063.076904, 4461.025391, 4108.205078, 4026.666504, 3572.820313, 16179.000000, 8145.000000, 8346.000000, 0.000000, 0.000000, 0.000000, 3.000000, 396.499969, 1557654787.298990, 4.000000, 4.000000, 2.000000, 4.000000, 4.000000
88.000000, 0.000000, 4068.717773, 4472.820313, 4070.256348, 3993.845947, 3576.410156, 450.000000, 8149.000000, 8337.000000, 0.000000, 0.000000, 0.000000, 3.000000, 404.399994, 1557654787.306890, 4.000000, 4.000000, 2.000000, 4.000000, 4.000000
89.000000, 0.000000, 4057.948730, 4453.846191, 4123.076660, 3945.128174, 3552.307617, 450.000000, 8145.000000, 8348.000000, 0.000000, 0.000000, 0.000000, 3.000000, 412.199982, 1557654787.314690, 4.000000, 4.000000, 2.000000, 4.000000, 4.000000
90.000000, 0.000000, 4063.076904, 4428.205078, 4203.076660, 3980.000000, 3565.128174, 450.000000, 8148.000000, 8347.000000, 0.000000, 0.000000, 0.000000, 3.000000, 419.999969, 1557654787.322490, 4.000000, 4.000000, 2.000000, 4.000000, 4.000000
91.000000, 0.000000, 4067.179443, 4419.487305, 4067.179443, 3990.769043, 3571.281982, 16179.000000, 8147.000000, 8343.000000, 0.000000, 0.000000, 0.000000, 3.000000, 427.800018, 1557654787.330290, 4.000000, 4.000000, 2.000000, 4.000000, 4.000000
92.000000, 0.000000, 4062.051270, 4442.051270, 4081.538330, 3931.794678, 3548.205078, 450.000000, 8145.000000, 8344.000000, 0.000000, 0.000000, 0.000000, 3.000000, 435.600006, 1557654787.338090, 4.000000, 4.000000, 2.000000, 4.000000, 4.000000
93.000000, 0.000000, 4069.743408, 4463.076660, 4072.820313, 3918.974365, 3563.589600, 450.000000, 8148.000000, 8338.000000, 0.000000, 0.000000, 0.000000, 3.000000, 443.499969, 1557654787.345990, 4.000000, 4.000000, 2.000000, 4.000000, 4.000000
94.000000, 0.000000, 4083.589600, 4454.358887, 4119.487305, 3972.307617, 3604.102539, 450.000000, 8149.000000, 8337.000000, 0.000000, 0.000000, 0.000000, 3.000000, 451.399994, 1557654787.353890, 4.000000, 4.000000, 2.000000, 4.000000, 4.000000
95.000000, 0.000000, 4094.871582, 4458.974121, 4200.000000, 3995.384521, 3624.102539, 16179.000000, 8148.000000, 8345.000000, 0.000000, 0.000000, 0.000000, 3.000000, 459.399994, 1557654787.361890, 4.000000, 4.000000, 2.000000, 4.000000, 4.000000
96.000000, 0.000000, 4101.025391, 4489.230469, 4066.153809, 3980.000000, 3632.820313, 450.000000, 8152.000000, 8343.000000, 0.000000, 0.000000, 0.000000, 3.000000, 467.399994, 1557654787.369890, 4.000000, 4.000000, 2.000000, 4.000000, 4.000000
97.000000, 0.000000, 4093.333252, 4483.589844, 4095.897217, 3998.974365, 3640.512695, 450.000000, 8153.000000, 8335.000000, 0.000000, 0.000000, 0.000000, 3.000000, 475.399994, 1557654787.377890, 4.000000, 4.000000, 2.000000, 4.000000, 4.000000
98.000000, 0.000000, 4078.974365, 4454.358887, 4110.769043, 4017.948730, 3642.563965, 450.000000, 8158.000000, 8339.000000, 0.000000, 0.000000, 0.000000, 3.000000, 483.199982, 1557654787.385690, 4.000000, 4.000000, 2.000000, 4.000000, 4.000000
99.000000, 0.000000, 4074.871582, 4451.794922, 4119.487305, 3999.487061, 3640.000000, 16179.000000, 8153.000000, 8350.000000, 0.000000, 0.000000, 0.000000, 3.000000, 490.899994, 1557654787.393390, 4.000000, 4.000000, 2.000000, 4.000000, 4.000000
100.000000, 0.000000, 4079.487061, 4465.127930, 4183.076660, 3982.563965, 3641.025635, 450.000000, 8153.000000, 8340.000000, 0.000000, 0.000000, 0.000000, 3.000000, 498.699982, 1557654787.401190, 4.000000, 4.000000, 2.000000, 4.000000, 4.000000
101.000000, 0.000000, 4078.974365, 4461.538574, 4053.333252, 3990.769043, 3642.051270, 450.000000, 8157.000000, 8330.000000, 0.000000, 0.000000, 0.000000, 3.000000, 506.699982, 1557654787.409190, 4.000000, 4.000000, 2.000000, 4.000000, 4.000000
102.000000, 0.000000, 4098.461426, 4441.025391, 4095.384521, 4016.923096, 3660.512695, 450.000000, 8160.000000, 8332.000000, 0.000000, 0.000000, 0.000000, 3.000000, 514.600006, 1557654787.417090, 4.000000, 4.000000, 2.000000, 4.000000, 4.000000
103.000000, 0.000000, 4130.256348, 4432.820313, 4140.000000, 4027.692139, 3692.307617, 16179.000000, 8153.000000, 8342.000000, 0.000000, 0.000000, 0.000000, 3.000000, 522.499969, 1557654787.424990, 4.000000, 4.000000, 2.000000, 4.000000, 4.000000
104.000000, 0.000000, 4133.333008, 4444.615234, 4121.538574, 4019.487061, 3695.897461, 450.000000, 8152.000000, 8333.000000, 0.000000, 0.000000, 0.000000, 3.000000, 530.399994, 1557654787.432890, 4.000000, 4.000000, 2.000000, 4.000000, 4.000000
105.000000, 0.000000, 4118.974121, 4455.897461, 4177.948730, 4004.615234, 3686.666504, 450.000000, 8143.000000, 8334.000000, 0.000000, 0.000000, 0.000000, 3.000000, 538.199982, 1557654787.440690, 4.000000, 4.000000, 2.000000, 4.000000, 4.000000
106.000000, 0.000000, 4114.871582, 4458.974121, 4061.538330, 3983.076904, 3692.820313, 450.000000, 8145.000000, 8340.000000, 0.000000, 0.000000, 0.000000, 3.000000, 545.999969, 1557654787.448490, 4.000000, 4.000000, 2.000000, 4.000000, 4.000000
107.000000, 0.000000, 4125.127930, 4468.717773, 4109.230469, 3986.153809, 3707.692139, 16179.000000, 8145.000000, 8342.000000, 0.000000, 0.000000, 0.000000, 3.000000, 553.800018, 1557654787.456290, 4.000000, 4.000000, 2.000000, 4.000000, 4.000000
108.000000, 0.000000, 4137.948730, 4473.333008, 4165.641113, 4003.589600, 3720.000000, 450.000000, 8140.000000, 8344.000000, 0.000000, 0.000000, 0.000000, 3.000000, 561.600006, 1557654787.464090, 4.000000, 4.000000, 2.000000, 4.000000, 4.000000
109.000000, 0.000000, 4123.589844, 4454.358887, 4101.538574, 4005.128174, 3713.333252, 450.000000, 8144.000000, 8349.000000, 0.000000, 0.000000, 0.000000, 3.000000, 569.499969, 1557654787.471990, 4.000000, 4.000000, 2.000000, 4.000000, 4.000000
110.000000, 0.000000, 4102.563965, 4453.333008, 4154.871582, 3996.923096, 3698.974365, 450.000000, 8141.000000, 8345.000000, 0.000000, 0.000000, 0.000000, 3.000000, 577.399994, 1557654787.479890, 4.000000, 4.000000, 2.000000, 4.000000, 4.000000
111.000000, 0.000000, 4129.230469, 4468.205078, 4077.948730, 3990.256348, 3720.512695, 16179.000000, 8141.000000, 8347.000000, 0.000000, 0.000000, 0.000000, 3.000000, 585.399994, 1557654787.487890, 4.000000, 4.000000, 2.000000, 4.000000, 4.000000
112.000000, 0.000000, 4163.589844, 4472.820313, 4122.051270, 4010.256348, 3763.076904, 450.000000, 8137.000000, 8354.000000, 0.000000, 0.000000, 0.000000, 3.000000, 593.399994, 1557654787.495890, 4.000000, 4.000000, 2.000000, 4.000000, 4.000000
113.000000, 0.000000, 4150.256348, 4476.922852, 4169.743652, 4032.307617, 3781.538330, 450.000000, 8133.000000, 8364.000000, 0.000000, 0.000000, 0.000000, 3.000000, 601.399994, 1557654787.503890, 4.000000, 4.000000, 2.000000, 4.000000, 4.000000
114.000000, 0.000000, 4132.307617, 4471.281738, 4069.230713, 4007.692139, 3785.640869, 450.000000, 8138.000000, 8353.000000, 0.000000, 0.000000, 0.000000, 3.000000, 609.199982, 1557654787.511690, 4.000000, 4.000000, 2.000000, 4.000000, 4.000000
115.000000, 0.000000, 4132.820313, 4470.256348, 4116.410156, 3971.281982, 3791.794678, 16179.000000, 8135.000000, 8353.000000, 0.000000, 0.000000, 0.000000, 3.000000, 616.899994, 1557654787.519390, 4.000000, 4.000000, 2.000000, 4.000000, 4.000000
116.000000, 0.000000, 4106.153809, 4480.000000, 4063.076904, 3952.307617, 3765.128174, 450.000000, 8133.000000, 8358.000000, 0.000000, 0.000000, 0.000000, 3.000000, 624.699982, 1557654787.527190, 4.000000, 4.000000, 2.000000, 4.000000, 4.000000
117.000000, 0.000000, 4072.307617, 4484.102539, 4112.820313, 3959.487061, 3727.692139, 450.000000, 8135.000000, 8360.000000, 0.000000, 0.000000, 0.000000, 3.000000, 632.499969, 1557654787.534990, 4.000000, 4.000000, 2.000000, 4.000000, 4.000000
118.000000, 0.000000, 4081.025635, 4484.102539, 4190.256348, 3981.025635, 3737.435791, 450.000000, 8135.000000, 8351.000000, 0.000000, 0.000000, 0.000000, 3.000000, 640.499969, 1557654787.542990, 4.000000, 4.000000, 2.000000, 4.000000, 4.000000
119.000000, 0.000000, 4097.436035, 4476.410156, 4068.717773, 3975.384521, 3766.666504, 16179.000000, 8143.000000, 8355.000000, 0.000000, 0.000000, 0.000000, 3.000000, 648.499969, 1557654787.550990, 4.000000, 4.000000, 2.000000, 4.000000, 4.000000
120.000000, 0.000000, 4098.461426, 4462.051270, 4096.410156, 3961.025635, 3772.820313, 450.000000, 8146.000000, 8349.000000, 0.000000, 0.000000, 0.000000, 3.000000, 656.499969, 1557654787.558990, 4.000000, 4.000000, 2.000000, 4.000000, 4.000000
121.000000, 0.000000, 4101.025391, 4468.717773, 4066.666504, 3956.923096, 3763.589600, 450.000000, 8143.000000, 8350.000000, 0.000000, 0.000000, 0.000000, 3.000000, 664.399994, 1557654787.566890, 4.000000, 4.000000, 2.000000, 4.000000, 4.000000
122.000000, 0.000000, 4101.538574, 4475.897461, 4106.153809, 3955.897461, 3773.845947, 450.000000, 8140.000000, 8356.000000, 0.000000, 0.000000, 0.000000, 3.000000, 672.199982, 1557654787.574690, 4.000000, 4.000000, 2.000000, 4.000000, 4.000000
123.000000, 0.000000, 4108.205078, 4451.281738, 4190.256348, 3962.563965, 3807.692139, 16179.000000, 8148.000000, 8348.000000, 0.000000, 0.000000, 0.000000, 3.000000, 679.999969, 1557654787.582490, 4.000000, 4.000000, 2.000000, 4.000000, 4.000000
124.000000, 0.000000, 4113.333008, 4449.743652, 4050.769043, 3981.538330, 3817.948730, 450.000000, 8152.000000, 8343.000000, 0.000000, 0.000000, 0.000000, 3.000000, 687.800018, 1557654787.590290, 4.000000, 4.000000, 2.000000, 4.000000, 4.000000
125.000000, 0.000000, 4098.974121, 4489.743652, 4057.435791, 3990.256348, 3800.512695, 450.000000, 8149.000000, 8352.000000, 0.000000, 0.000000, 0.000000, 3.000000, 695.600006, 1557654787.598090, 4.000000, 4.000000, 2.000000, 4.000000, 4.000000
126.000000, 0.000000, 4079.487061, 4494.358887, 4064.102539, 3948.205078, 3791.794678, 450.000000, 8151.000000, 8357.000000, 0.000000, 0.000000, 0.000000, 3.000000, 703.499969, 1557654787.605990, 4.000000, 4.000000, 2.000000, 4.000000, 4.000000
127.000000, 0.000000, 4075.897217, 4461.538574, 4096.410156, 3925.128174, 3800.512695, 16179.000000, 8151.000000, 8351.000000, 0.000000, 0.000000, 0.000000, 3.000000, 711.499969, 1557654787.613990, 4.000000, 4.000000, 2.000000, 4.000000, 4.000000
128.000000, 0.000000, 4078.974365, 4456.410156, 4153.846191, 3969.743408, 3805.640869, 500.000000, 8157.000000, 8344.000000, 0.000000, 0.000000, 0.000000, 3.000000, 719.499969, 1557654787.621990, 4.000000, 4.000000, 2.000000, 4.000000, 4.000000
0.000000, 0.000000, 4065.128174, 4469.230469, 4021.025635, 3960.000000, 3805.128174, 500.000000, 8156.000000, 8351.000000, 0.000000, 0.000000, 0.000000, 3.000000, 727.499969, 1557654787.629990, 4.000000, 4.000000, 2.000000, 4.000000, 4.000000
1.000000, 0.000000, 4057.435791, 4470.769043, 4083.076904, 3913.845947, 3825.640869, 500.000000, 8156.000000, 8341.000000, 0.000000, 0.000000, 0.000000, 3.000000, 735.499969, 1557654787.637990, 4.000000, 4.000000, 2.000000, 4.000000, 4.000000
2.000000, 0.000000, 4075.897217, 4463.589844, 4118.974121, 3927.179443, 3852.820313, 16193.000000, 8151.000000, 8337.000000, 0.000000, 0.000000, 0.000000, 3.000000, 743.199982, 1557654787.645690, 4.000000, 4.000000, 2.000000, 4.000000, 4.000000
3.000000, 0.000000, 4083.076904, 4450.769043, 4098.461426, 3947.179443, 3858.461426, 500.000000, 8152.000000, 8340.000000, 0.000000, 0.000000, 0.000000, 3.000000, 750.999969, 1557654787.653490, 4.000000, 4.000000, 2.000000, 4.000000, 4.000000
4.000000, 0.000000, 4066.153809, 4451.794922, 4163.589844, 3929.743408, 3861.025635, 16064.000000, 8148.000000, 8338.000000, 0.000000, 0.000000, 0.000000, 3.000000, 758.800018, 1557654787.661290, 4.000000, 4.000000, 2.000000, 4.000000, 4.000000
5.000000, 0.000000, 4061.538330, 4467.692383, 4040.512695, 3916.923096, 3868.205078, 500.000000, 8151.000000, 8338.000000, 0.000000, 0.000000, 0.000000, 3.000000, 766.600006, 1557654787.669090, 4.000000, 4.000000, 2.000000, 4.000000, 4.000000
6.000000, 0.000000, 4068.205078, 4462.051270, 4069.743408, 3923.589600, 3860.512695, 256.000000, 8146.000000, 8339.000000, 0.000000, 0.000000, 0.000000, 3.000000, 774.600006, 1557654787.677090, 4.000000, 4.000000, 2.000000, 4.000000, 4.000000
7.000000, 0.000000, 4065.640869, 4436.410156, 4125.641113, 3927.692139, 3850.256348, 500.000000, 8152.000000, 8335.000000, 0.000000, 0.000000, 0.000000, 3.000000, 782.600006, 1557654787.685090, 4.000000, 4.000000, 2.000000, 4.000000, 4.000000
8.000000, 0.000000, 4062.563965, 4429.743652, 4092.820313, 3935.384521, 3864.102539, 500.000000, 8147.000000, 8334.000000, 0.000000, 0.000000, 0.000000, 3.000000, 790.499969, 1557654787.692990, 4.000000, 4.000000, 2.000000, 4.000000, 4.000000
9.000000, 0.000000, 4054.358887, 4434.871582, 4143.076660, 3915.897461, 3880.512695, 16096.000000, 8143.000000, 8344.000000, 0.000000, 0.000000, 0.000000, 3.000000, 798.499969, 1557654787.700990, 4.000000, 4.000000, 2.000000, 4.000000, 4.000000
10.000000, 0.000000, 4036.410156, 4432.307617, 4042.051270, 3877.948730, 3873.845947, 500.000000, 8137.000000, 8337.000000, 0.000000, 0.000000, 0.000000, 3.000000, 806.300018, 1557654787.708790, 4.000000, 4.000000, 2.000000, 4.000000, 4.000000
11.000000, 0.000000, 4047.179443, 4421.538574, 4084.102539, 3905.640869, 3875.897461, 16166.000000, 8150.000000, 8329.000000, 0.000000, 0.000000, 0.000000, 3.000000, 814.100006, 1557654787.716590, 4.000000, 4.000000, 2.000000, 4.000000, 4.000000
12.000000, 0.000000, 4071.281982, 4416.922852, 4134.358887, 3953.333252, 3894.358887, 500.000000, 8141.000000, 8336.000000, 0.000000, 0.000000, 0.000000, 3.000000, 821.999969, 1557654787.724490, 4.000000, 4.000000, 2.000000, 4.000000, 4.000000
13.000000, 0.000000, 4077.948730, 4441.025391, 4066.153809, 3951.281982, 3918.974365, 500.000000, 8139.000000, 8348.000000, 0.000000, 0.000000, 0.000000, 3.000000, 829.699982, 1557654787.732190, 4.000000, 4.000000, 2.000000, 4.000000, 4.000000
14.000000, 0.000000, 4095.384521, 4460.512695, 4127.692383, 3920.000000, 3951.281982, 450.000000, 8137.000000, 8350.000000, 0.000000, 0.000000, 0.000000, 3.000000, 837.699982, 1557654787.740190, 4.000000, 4.000000, 2.000000, 4.000000, 4.000000
15.000000, 0.000000, 4118.461426, 4433.333008, 4046.153809, 3890.769043, 3972.307617, 16166.000000, 8147.000000, 8346.000000, 0.000000, 0.000000, 0.000000, 3.000000, 845.499969, 1557654787.747990, 4.000000, 4.000000, 2.000000, 4.000000, 4.000000
16.000000, 0.000000, 4120.000000, 4413.333008, 4077.948730, 3890.256348, 3978.974365, 0.000000, 8141.000000, 8353.000000, 0.000000, 0.000000, 0.000000, 3.000000, 853.499969, 1557654787.755990, 4.000000, 4.000000, 2.000000, 4.000000, 4.000000
17.000000, 0.000000, 4118.974121, 4446.666504, 4145.641113, 3894.358887, 3988.205078, 0.000000, 8148.000000, 8347.000000, 0.000000, 0.000000, 0.000000, 3.000000, 861.499969, 1557654787.763990, 4.000000, 4.000000, 2.000000, 4.000000, 4.000000
