title:rishi flat frnd, recorded:12.05.19 15.31.50, timestamp started:2019-05-12T15:31:50.905189+05:30, sampling:128, subject:, labels:COUNTER INTERPOLATED AF3 T7 Pz T8 AF4 RAW_CQ GYROX GYROY MARKER MARKER_HARDWARE SYNC TIME_STAMP_s TIME_STAMP_ms TimeStamp CQ_AF3 CQ_T7 CQ_Pz CQ_T8 CQ_AF4, chan:20, samples:3919, units:emotiv
101.000000, 0.000000, 4336.922852, 4671.794922, 4180.512695, 4474.358887, 3368.717773, 450.000000, 8159.000000, 8335.000000, 1.000000, 2.000000, 0.000000, 0.000000, 0.000000, 1557655310.905190, 4.000000, 2.000000, 0.000000, 4.000000, 4.000000
102.000000, 0.000000, 4346.666504, 4674.358887, 4169.230469, 4469.230469, 3372.820313, 450.000000, 8153.000000, 8344.000000, 0.000000, 0.000000, 0.000000, 0.000000, 7.800003, 1557655310.912990, 4.000000, 2.000000, 0.000000, 4.000000, 4.000000
103.000000, 0.000000, 4342.563965, 4664.615234, 4135.384277, 4468.205078, 3368.205078, 16209.000000, 8157.000000, 8340.000000, 0.000000, 0.000000, 0.000000, 0.000000, 15.599991, 1557655310.920790, 4.000000, 2.000000, 0.000000, 4.000000, 4.000000
104.000000, 0.000000, 4323.589844, 4650.256348, 4189.743652, 4471.281738, 3372.820313, 450.000000, 8162.000000, 8328.000000, 0.000000, 0.000000, 0.000000, 0.000000, 23.399994, 1557655310.928590, 4.000000, 2.000000, 0.000000, 4.000000, 4.000000
105.000000, 0.000000, 4302.051270, 4644.102539, 4131.281738, 4459.487305, 3363.076904, 450.000000, 8156.000000, 8339.000000, 0.000000, 0.000000, 0.000000, 0.000000, 31.099991, 1557655310.936290, 4.000000, 2.000000, 0.000000, 4.000000, 4.000000
106.000000, 0.000000, 4295.897461, 4651.794922, 4169.743652, 4456.922852, 3346.666504, 450.000000, 8154.000000, 8339.000000, 0.000000, 0.000000, 0.000000, 0.000000, 39.099991, 1557655310.944290, 4.000000, 2.000000, 0.000000, 4.000000, 4.000000
107.000000, 0.000000, 4299.487305, 4658.974121, 4174.358887, 4459.487305, 3364.615234, 16209.000000, 8150.000000, 8337.000000, 0.000000, 0.000000, 0.000000, 0.000000, 47.099991, 1557655310.952290, 4.000000, 2.000000, 0.000000, 4.000000, 4.000000
108.000000, 0.000000, 4301.025391, 4654.358887, 4143.076660, 4452.307617, 3383.589600, 450.000000, 8145.000000, 8336.000000, 0.000000, 0.000000, 0.000000, 0.000000, 55.099991, 1557655310.960290, 4.000000, 2.000000, 0.000000, 4.000000, 4.000000
109.000000, 0.000000, 4305.127930, 4656.410156, 4197.948730, 4462.051270, 3379.487061, 450.000000, 8151.000000, 8335.000000, 0.000000, 0.000000, 0.000000, 0.000000, 63.099991, 1557655310.968290, 4.000000, 2.000000, 0.000000, 4.000000, 4.000000
110.000000, 0.000000, 4291.281738, 4662.563965, 4131.281738, 4468.205078, 3370.769043, 450.000000, 8152.000000, 8331.000000, 0.000000, 0.000000, 0.000000, 0.000000, 71.000000, 1557655310.976190, 4.000000, 2.000000, 0.000000, 4.000000, 4.000000
111.000000, 0.000000, 4269.743652, 4647.692383, 4154.871582, 4462.051270, 3367.692139, 16209.000000, 8152.000000, 8342.000000, 0.000000, 0.000000, 0.000000, 0.000000, 78.800003, 1557655310.983990, 4.000000, 2.000000, 0.000000, 4.000000, 4.000000
112.000000, 0.000000, 4280.000000, 4629.230469, 4163.589844, 4451.794922, 3372.820313, 450.000000, 8147.000000, 8339.000000, 0.000000, 0.000000, 0.000000, 0.000000, 86.599991, 1557655310.991790, 4.000000, 2.000000, 0.000000, 4.000000, 4.000000
113.000000, 0.000000, 4291.794922, 4641.538574, 4119.487305, 4435.384277, 3370.769043, 450.000000, 8151.000000, 8337.000000, 0.000000, 0.000000, 0.000000, 0.000000, 94.399994, 1557655310.999590, 4.000000, 2.000000, 0.000000, 4.000000, 4.000000
114.000000, 0.000000, 4286.153809, 4678.974121, 4186.666504, 4426.666504, 3369.230713, 450.000000, 8147.000000, 8335.000000, 0.000000, 0.000000, 0.000000, 0.000000, 102.199997, 1557655311.007390, 4.000000, 2.000000, 0.000000, 4.000000, 4.000000
115.000000, 0.000000, 4288.717773, 4688.205078, 4137.948730, 4414.871582, 3380.000000, 16209.000000, 8146.000000, 8344.000000, 0.000000, 0.000000, 0.000000, 0.000000, 110.000000, 1557655311.015190, 4.000000, 2.000000, 0.000000, 4.000000, 4.000000
116.000000, 0.000000, 4288.205078, 4662.563965, 4154.871582, 4404.102539, 3393.846191, 450.000000, 8151.000000, 8350.000000, 0.000000, 0.000000, 0.000000, 0.000000, 117.999985, 1557655311.023190, 4.000000, 2.000000, 0.000000, 4.000000, 4.000000
117.000000, 0.000000, 4275.897461, 4649.230469, 4174.358887, 4402.563965, 3402.563965, 450.000000, 8153.000000, 8335.000000, 0.000000, 0.000000, 0.000000, 0.000000, 125.999985, 1557655311.031190, 4.000000, 2.000000, 0.000000, 4.000000, 4.000000
118.000000, 0.000000, 4272.307617, 4645.127930, 4121.538574, 4400.512695, 3402.051270, 450.000000, 8153.000000, 8344.000000, 0.000000, 0.000000, 0.000000, 0.000000, 133.800003, 1557655311.038990, 4.000000, 2.000000, 0.000000, 4.000000, 4.000000
119.000000, 0.000000, 4278.974121, 4639.487305, 4182.051270, 4400.512695, 3396.410156, 16209.000000, 8150.000000, 8354.000000, 0.000000, 0.000000, 0.000000, 0.000000, 141.599991, 1557655311.046790, 4.000000, 2.000000, 0.000000, 4.000000, 4.000000
120.000000, 0.000000, 4283.076660, 4647.692383, 4134.358887, 4397.435547, 3387.179443, 450.000000, 8150.000000, 8345.000000, 0.000000, 0.000000, 0.000000, 0.000000, 149.300003, 1557655311.054490, 4.000000, 2.000000, 0.000000, 4.000000, 4.000000
121.000000, 0.000000, 4300.000000, 4649.743652, 4140.512695, 4405.127930, 3382.051270, 450.000000, 8146.000000, 8351.000000, 0.000000, 0.000000, 0.000000, 0.000000, 157.199997, 1557655311.062390, 4.000000, 2.000000, 0.000000, 4.000000, 4.000000
122.000000, 0.000000, 4315.897461, 4633.333008, 4172.307617, 4408.717773, 3386.153809, 450.000000, 8146.000000, 8347.000000, 0.000000, 0.000000, 0.000000, 0.000000, 165.199997, 1557655311.070390, 4.000000, 2.000000, 0.000000, 4.000000, 4.000000
123.000000, 0.000000, 4321.025391, 4641.025391, 4114.871582, 4397.435547, 3396.923096, 16209.000000, 8147.000000, 8359.000000, 0.000000, 0.000000, 0.000000, 0.000000, 173.199997, 1557655311.078390, 4.000000, 2.000000, 0.000000, 4.000000, 4.000000
124.000000, 0.000000, 4324.102539, 4655.384277, 4166.153809, 4394.358887, 3396.410156, 450.000000, 8142.000000, 8358.000000, 0.000000, 0.000000, 0.000000, 0.000000, 181.099991, 1557655311.086290, 4.000000, 2.000000, 0.000000, 4.000000, 4.000000
125.000000, 0.000000, 4312.307617, 4631.281738, 4122.051270, 4374.358887, 3375.384521, 450.000000, 8140.000000, 8358.000000, 0.000000, 0.000000, 0.000000, 0.000000, 188.999985, 1557655311.094190, 4.000000, 2.000000, 0.000000, 4.000000, 4.000000
126.000000, 0.000000, 4294.871582, 4619.487305, 4119.487305, 4360.000000, 3373.846191, 450.000000, 8145.000000, 8355.000000, 0.000000, 0.000000, 0.000000, 0.000000, 196.999985, 1557655311.102190, 4.000000, 2.000000, 0.000000, 4.000000, 4.000000
127.000000, 0.000000, 4293.333008, 4639.487305, 4168.717773, 4373.333008, 3390.256348, 16209.000000, 8145.000000, 8347.000000, 0.000000, 0.000000, 0.000000, 0.000000, 204.800003, 1557655311.109990, 4.000000, 2.000000, 0.000000, 4.000000, 4.000000
128.000000, 0.000000, 4302.563965, 4636.410156, 4114.358887, 4372.307617, 3394.871826, 500.000000, 8144.000000, 8358.000000, 0.000000, 0.000000, 0.000000, 0.000000, 212.599991, 1557655311.117790, 4.000000, 2.000000, 0.000000, 4.000000, 4.000000
0.000000, 0.000000, 4307.179199, 4622.563965, 4162.563965, 4363.076660, 3394.871826, 500.000000, 8151.000000, 8358.000000, 0.000000, 0.000000, 0.000000, 0.000000, 220.400009, 1557655311.125590, 4.000000, 2.000000, 0.000000, 4.000000, 4.000000
1.000000, 0.000000, 4295.897461, 4625.641113, 4133.333008, 4357.435547, 3396.410156, 500.000000, 8156.000000, 8350.000000, 0.000000, 0.000000, 0.000000, 0.000000, 228.199997, 1557655311.133390, 4.000000, 2.000000, 0.000000, 4.000000, 4.000000
2.000000, 0.000000, 4287.179199, 4623.589844, 4129.230469, 4358.461426, 3410.256348, 16209.000000, 8147.000000, 8342.000000, 0.000000, 0.000000, 0.000000, 0.000000, 236.099991, 1557655311.141290, 4.000000, 2.000000, 0.000000, 4.000000, 4.000000
3.000000, 0.000000, 4287.179199, 4619.487305, 4188.205078, 4364.102539, 3425.640869, 500.000000, 8153.000000, 8356.000000, 0.000000, 0.000000, 0.000000, 0.000000, 244.099991, 1557655311.149290, 4.000000, 2.000000, 0.000000, 4.000000, 4.000000
4.000000, 0.000000, 4272.820313, 4611.281738, 4114.871582, 4357.948730, 3406.153809, 182.000000, 8158.000000, 8346.000000, 0.000000, 0.000000, 0.000000, 0.000000, 252.099991, 1557655311.157290, 4.000000, 2.000000, 0.000000, 4.000000, 4.000000
5.000000, 0.000000, 4265.641113, 4603.589844, 4152.820313, 4358.461426, 3378.974365, 500.000000, 8154.000000, 8341.000000, 0.000000, 0.000000, 0.000000, 0.000000, 260.099991, 1557655311.165290, 4.000000, 2.000000, 0.000000, 4.000000, 4.000000
6.000000, 0.000000, 4281.538574, 4611.281738, 4145.641113, 4360.512695, 3388.205078, 15.000000, 8159.000000, 8342.000000, 0.000000, 0.000000, 0.000000, 0.000000, 267.900009, 1557655311.173090, 4.000000, 2.000000, 0.000000, 4.000000, 4.000000
7.000000, 0.000000, 4286.153809, 4618.974121, 4111.281738, 4356.410156, 3415.897461, 500.000000, 8156.000000, 8346.000000, 0.000000, 0.000000, 0.000000, 0.000000, 275.599991, 1557655311.180790, 4.000000, 2.000000, 0.000000, 4.000000, 4.000000
8.000000, 0.000000, 4280.512695, 4618.461426, 4153.333008, 4350.769043, 3434.871826, 500.000000, 8156.000000, 8346.000000, 0.000000, 0.000000, 0.000000, 0.000000, 283.400009, 1557655311.188590, 4.000000, 2.000000, 0.000000, 4.000000, 4.000000
9.000000, 0.000000, 4270.256348, 4610.769043, 4098.974121, 4334.358887, 3427.179443, 16067.000000, 8152.000000, 8344.000000, 0.000000, 0.000000, 0.000000, 0.000000, 291.199997, 1557655311.196390, 4.000000, 2.000000, 0.000000, 4.000000, 4.000000
10.000000, 0.000000, 4250.256348, 4601.538574, 4145.127930, 4322.563965, 3403.589600, 500.000000, 8152.000000, 8340.000000, 0.000000, 0.000000, 0.000000, 0.000000, 299.199997, 1557655311.204390, 4.000000, 2.000000, 0.000000, 4.000000, 4.000000
11.000000, 0.000000, 4243.589844, 4592.307617, 4143.589844, 4320.512695, 3405.128174, 16207.000000, 8154.000000, 8330.000000, 0.000000, 0.000000, 0.000000, 0.000000, 307.099991, 1557655311.212290, 4.000000, 2.000000, 0.000000, 4.000000, 4.000000
12.000000, 0.000000, 4251.794922, 4596.410156, 4116.410156, 4328.205078, 3426.153809, 500.000000, 8144.000000, 8342.000000, 0.000000, 0.000000, 0.000000, 0.000000, 314.999985, 1557655311.220190, 4.000000, 2.000000, 0.000000, 4.000000, 4.000000
13.000000, 0.000000, 4252.820313, 4618.461426, 4180.000000, 4333.846191, 3435.897461, 500.000000, 8146.000000, 8341.000000, 0.000000, 0.000000, 0.000000, 0.000000, 322.999985, 1557655311.228190, 4.000000, 2.000000, 0.000000, 4.000000, 4.000000
14.000000, 0.000000, 4241.538574, 4624.102539, 4105.127930, 4314.358887, 3436.410156, 450.000000, 8152.000000, 8336.000000, 0.000000, 0.000000, 0.000000, 0.000000, 330.800003, 1557655311.235990, 4.000000, 2.000000, 0.000000, 4.000000, 4.000000
15.000000, 0.000000, 4227.692383, 4607.179199, 4122.563965, 4310.256348, 3437.435791, 16207.000000, 8148.000000, 8338.000000, 0.000000, 0.000000, 0.000000, 0.000000, 338.599991, 1557655311.243790, 4.000000, 2.000000, 0.000000, 4.000000, 4.000000
16.000000, 0.000000, 4227.692383, 4602.051270, 4134.358887, 4321.538574, 3436.410156, 0.000000, 8144.000000, 8348.000000, 0.000000, 0.000000, 0.000000, 0.000000, 346.400009, 1557655311.251590, 4.000000, 2.000000, 0.000000, 4.000000, 4.000000
17.000000, 0.000000, 4236.922852, 4604.102539, 4088.717773, 4315.897461, 3434.358887, 0.000000, 8148.000000, 8350.000000, 0.000000, 0.000000, 0.000000, 0.000000, 354.199997, 1557655311.259390, 4.000000, 2.000000, 0.000000, 4.000000, 4.000000
18.000000, 0.000000, 4218.461426, 4584.102539, 4152.307617, 4306.153809, 3429.230713, 0.000000, 8141.000000, 8339.000000, 0.000000, 0.000000, 0.000000, 0.000000, 362.199997, 1557655311.267390, 4.000000, 2.000000, 0.000000, 4.000000, 4.000000
19.000000, 0.000000, 4166.666504, 4563.589844, 4102.051270, 4280.512695, 3402.051270, 0.000000, 8146.000000, 8343.000000, 0.000000, 0.000000, 0.000000, 0.000000, 370.199997, 1557655311.275390, 4.000000, 2.000000, 0.000000, 4.000000, 4.000000
20.000000, 0.000000, 4141.025391, 4571.281738, 4118.461426, 4256.922852, 3373.846191, 0.000000, 8144.000000, 8351.000000, 0.000000, 0.000000, 0.000000, 0.000000, 378.199997, 1557655311.283390, 4.000000, 2.000000, 0.000000, 4.000000, 4.000000
21.000000, 0.000000, 4146.666504, 4583.589844, 4145.641113, 4258.974121, 3389.230713, 0.000000, 8145.000000, 8351.000000, 0.000000, 0.000000, 0.000000, 0.000000, 386.199997, 1557655311.291390, 4.000000, 2.000000, 0.000000, 4.000000, 4.000000
22.000000, 0.000000, 4153.333008, 4583.589844, 4097.436035, 4270.256348, 3423.076904, 0.000000, 8140.000000, 8348.000000, 0.000000, 0.000000, 0.000000, 0.000000, 394.100021, 1557655311.299290, 4.000000, 2.000000, 0.000000, 4.000000, 4.000000
23.000000, 0.000000, 4158.974121, 4574.871582, 4151.281738, 4278.974121, 3427.179443, 0.000000, 8150.000000, 8350.000000, 0.000000, 0.000000, 0.000000, 0.000000, 401.900009, 1557655311.307090, 4.000000, 2.000000, 0.000000, 4.000000, 4.000000
24.000000, 0.000000, 4152.820313, 4566.666504, 4096.410156, 4272.820313, 3408.717773, 0.000000, 8152.000000, 8339.000000, 0.000000, 0.000000, 0.000000, 0.000000, 409.699997, 1557655311.314890, 4.000000, 2.000000, 0.000000, 4.000000, 4.000000
25.000000, 0.000000, 4134.358887, 4562.563965, 4098.974121, 4258.974121, 3407.179443, 0.000000, 8156.000000, 8351.000000, 0.000000, 0.000000, 0.000000, 0.000000, 417.499985, 1557655311.322690, 4.000000, 2.000000, 0.000000, 4.000000, 4.000000
26.000000, 0.000000, 4133.846191, 4563.589844, 4137.948730, 4249.743652, 3426.666504, 0.000000, 8157.000000, 8353.000000, 0.000000, 0.000000, 0.000000, 0.000000, 425.299973, 1557655311.330490, 4.000000, 2.000000, 0.000000, 4.000000, 4.000000
27.000000, 0.000000, 4145.127930, 4564.102539, 4085.128174, 4248.717773, 3443.076904, 0.000000, 8160.000000, 8341.000000, 0.000000, 0.000000, 0.000000, 0.000000, 432.999985, 1557655311.338190, 4.000000, 2.000000, 0.000000, 4.000000, 4.000000
28.000000, 0.000000, 4140.512695, 4552.820313, 4134.871582, 4254.871582, 3447.179443, 0.000000, 8157.000000, 8344.000000, 0.000000, 0.000000, 0.000000, 0.000000, 440.999985, 1557655311.346190, 4.000000, 2.000000, 0.000000, 4.000000, 4.000000
29.000000, 0.000000, 4122.051270, 4537.435547, 4093.333252, 4244.102539, 3439.487061, 0.000000, 8159.000000, 8347.000000, 0.000000, 0.000000, 0.000000, 0.000000, 448.999985, 1557655311.354190, 4.000000, 2.000000, 0.000000, 4.000000, 4.000000
30.000000, 0.000000, 4112.307617, 4546.666504, 4090.256348, 4241.538574, 3441.025635, 0.000000, 8163.000000, 8344.000000, 0.000000, 0.000000, 0.000000, 0.000000, 456.999985, 1557655311.362190, 4.000000, 2.000000, 0.000000, 4.000000, 4.000000
31.000000, 0.000000, 4111.794922, 4565.641113, 4130.769043, 4246.153809, 3453.333252, 0.000000, 8162.000000, 8332.000000, 0.000000, 0.000000, 0.000000, 0.000000, 464.799973, 1557655311.369990, 4.000000, 2.000000, 0.000000, 4.000000, 4.000000
32.000000, 0.000000, 4101.025391, 4548.717773, 4066.153809, 4219.487305, 3445.640869, 0.000000, 8159.000000, 8334.000000, 0.000000, 0.000000, 0.000000, 0.000000, 472.499985, 1557655311.377690, 4.000000, 2.000000, 0.000000, 4.000000, 4.000000
33.000000, 0.000000, 4090.769043, 4524.102539, 4115.384277, 4196.922852, 3432.820313, 0.000000, 8153.000000, 8341.000000, 0.000000, 0.000000, 0.000000, 0.000000, 480.400009, 1557655311.385590, 4.000000, 2.000000, 0.000000, 4.000000, 4.000000
34.000000, 0.000000, 4089.743408, 4528.205078, 4084.615234, 4193.333008, 3442.563965, 0.000000, 8150.000000, 8336.000000, 0.000000, 0.000000, 0.000000, 0.000000, 488.199997, 1557655311.393390, 4.000000, 2.000000, 0.000000, 4.000000, 4.000000
35.000000, 0.000000, 4088.717773, 4530.256348, 4074.358887, 4200.000000, 3474.358887, 0.000000, 8151.000000, 8335.000000, 0.000000, 0.000000, 0.000000, 0.000000, 496.199997, 1557655311.401390, 4.000000, 2.000000, 0.000000, 4.000000, 4.000000
36.000000, 0.000000, 4108.205078, 4527.692383, 4141.025391, 4220.000000, 3510.769043, 0.000000, 8152.000000, 8338.000000, 0.000000, 0.000000, 0.000000, 0.000000, 504.100021, 1557655311.409290, 4.000000, 2.000000, 0.000000, 4.000000, 4.000000
37.000000, 0.000000, 4133.846191, 4532.820313, 4091.794678, 4233.846191, 3531.281982, 0.000000, 8141.000000, 8338.000000, 0.000000, 0.000000, 0.000000, 0.000000, 511.999985, 1557655311.417190, 4.000000, 2.000000, 0.000000, 4.000000, 4.000000
38.000000, 0.000000, 4138.974121, 4527.179199, 4136.922852, 4241.538574, 3537.948730, 0.000000, 8141.000000, 8344.000000, 0.000000, 0.000000, 0.000000, 0.000000, 519.999985, 1557655311.425190, 4.000000, 2.000000, 0.000000, 4.000000, 4.000000
39.000000, 0.000000, 4133.333008, 4514.358887, 4104.615234, 4225.127930, 3534.358887, 0.000000, 8136.000000, 8350.000000, 0.000000, 0.000000, 0.000000, 0.000000, 527.999985, 1557655311.433190, 4.000000, 2.000000, 0.000000, 4.000000, 4.000000
40.000000, 0.000000, 4126.666504, 4518.974121, 4063.589600, 4197.948730, 3536.410156, 0.000000, 8146.000000, 8341.000000, 0.000000, 0.000000, 0.000000, 0.000000, 535.799973, 1557655311.440990, 4.000000, 2.000000, 0.000000, 4.000000, 4.000000
41.000000, 0.000000, 4125.127930, 4530.256348, 4130.769043, 4199.487305, 3556.410156, 0.000000, 8134.000000, 8348.000000, 0.000000, 0.000000, 0.000000, 0.000000, 543.600021, 1557655311.448790, 4.000000, 2.000000, 0.000000, 4.000000, 4.000000
42.000000, 0.000000, 4131.794922, 4523.589844, 4079.487061, 4209.743652, 3574.871826, 0.000000, 8139.000000, 8359.000000, 0.000000, 0.000000, 0.000000, 0.000000, 551.299973, 1557655311.456490, 4.000000, 2.000000, 0.000000, 4.000000, 4.000000
43.000000, 0.000000, 4129.230469, 4509.743652, 4110.256348, 4203.589844, 3585.640869, 0.000000, 8136.000000, 8366.000000, 0.000000, 0.000000, 0.000000, 0.000000, 559.100021, 1557655311.464290, 4.000000, 2.000000, 0.000000, 4.000000, 4.000000
44.000000, 0.000000, 4114.871582, 4495.897461, 4109.743652, 4186.666504, 3604.102539, 0.000000, 8141.000000, 8351.000000, 0.000000, 0.000000, 0.000000, 0.000000, 567.100021, 1557655311.472290, 4.000000, 2.000000, 0.000000, 4.000000, 4.000000
45.000000, 0.000000, 4120.512695, 4482.051270, 4086.666504, 4188.205078, 3620.000000, 0.000000, 8134.000000, 8355.000000, 0.000000, 0.000000, 0.000000, 0.000000, 575.100021, 1557655311.480290, 4.000000, 2.000000, 0.000000, 4.000000, 4.000000
46.000000, 0.000000, 4151.794922, 4470.256348, 4152.820313, 4206.666504, 3629.230713, 0.000000, 8137.000000, 8362.000000, 0.000000, 0.000000, 0.000000, 0.000000, 583.100021, 1557655311.488290, 4.000000, 2.000000, 0.000000, 4.000000, 4.000000
47.000000, 0.000000, 4158.974121, 4452.820313, 4091.794678, 4204.102539, 3641.538330, 0.000000, 8137.000000, 8356.000000, 0.000000, 0.000000, 0.000000, 0.000000, 590.999985, 1557655311.496190, 4.000000, 2.000000, 0.000000, 4.000000, 4.000000
48.000000, 0.000000, 4140.512695, 4438.461426, 4109.743652, 4195.384277, 3656.410156, 0.000000, 8142.000000, 8355.000000, 0.000000, 0.000000, 0.000000, 0.000000, 598.799973, 1557655311.503990, 4.000000, 2.000000, 0.000000, 4.000000, 4.000000
49.000000, 0.000000, 4138.461426, 4441.025391, 4114.358887, 4193.846191, 3669.230713, 0.000000, 8142.000000, 8359.000000, 0.000000, 0.000000, 0.000000, 0.000000, 606.600021, 1557655311.511790, 4.000000, 2.000000, 0.000000, 4.000000, 4.000000
50.000000, 0.000000, 4148.717773, 4456.410156, 4076.410156, 4192.307617, 3680.000000, 0.000000, 8146.000000, 8351.000000, 0.000000, 0.000000, 0.000000, 0.000000, 614.400009, 1557655311.519590, 4.000000, 2.000000, 0.000000, 4.000000, 4.000000
51.000000, 0.000000, 4142.051270, 4466.153809, 4136.410156, 4187.692383, 3690.256348, 0.000000, 8145.000000, 8356.000000, 0.000000, 0.000000, 0.000000, 0.000000, 622.199997, 1557655311.527390, 4.000000, 2.000000, 0.000000, 4.000000, 4.000000
52.000000, 0.000000, 4138.461426, 4465.127930, 4071.281982, 4169.743652, 3696.410156, 0.000000, 8144.000000, 8351.000000, 0.000000, 0.000000, 0.000000, 0.000000, 630.199997, 1557655311.535390, 4.000000, 2.000000, 0.000000, 4.000000, 4.000000
53.000000, 0.000000, 4172.820313, 4473.846191, 4089.743408, 4167.692383, 3716.410156, 0.000000, 8147.000000, 8341.000000, 0.000000, 0.000000, 0.000000, 0.000000, 638.100021, 1557655311.543290, 4.000000, 2.000000, 0.000000, 4.000000, 4.000000
54.000000, 0.000000, 4213.333008, 4481.538574, 4116.922852, 4177.436035, 3761.025635, 0.000000, 8149.000000, 8341.000000, 0.000000, 0.000000, 0.000000, 0.000000, 646.100021, 1557655311.551290, 4.000000, 2.000000, 0.000000, 4.000000, 4.000000
55.000000, 0.000000, 4228.205078, 4468.717773, 4055.384521, 4175.384277, 3799.487061, 0.000000, 8145.000000, 8346.000000, 0.000000, 0.000000, 0.000000, 0.000000, 654.100021, 1557655311.559290, 4.000000, 2.000000, 0.000000, 4.000000, 4.000000
56.000000, 0.000000, 4230.256348, 4454.358887, 4113.333008, 4171.281738, 3804.615234, 0.000000, 8153.000000, 8344.000000, 0.000000, 0.000000, 0.000000, 0.000000, 662.100021, 1557655311.567290, 4.000000, 2.000000, 0.000000, 4.000000, 4.000000
57.000000, 0.000000, 4217.948730, 4443.076660, 4078.974365, 4148.205078, 3790.256348, 0.000000, 8147.000000, 8339.000000, 0.000000, 0.000000, 0.000000, 0.000000, 669.900009, 1557655311.575090, 4.000000, 2.000000, 0.000000, 4.000000, 4.000000
58.000000, 0.000000, 4207.179199, 4441.025391, 4090.769043, 4133.846191, 3794.358887, 0.000000, 8145.000000, 8339.000000, 0.000000, 0.000000, 0.000000, 0.000000, 677.600021, 1557655311.582790, 4.000000, 2.000000, 0.000000, 4.000000, 4.000000
59.000000, 0.000000, 4216.410156, 4449.743652, 4129.230469, 4149.743652, 3815.897461, 0.000000, 8151.000000, 8348.000000, 0.000000, 0.000000, 0.000000, 0.000000, 685.400009, 1557655311.590590, 4.000000, 2.000000, 0.000000, 4.000000, 4.000000
60.000000, 0.000000, 4211.794922, 4434.871582, 4068.717773, 4152.820313, 3824.102539, 0.000000, 8146.000000, 8339.000000, 0.000000, 0.000000, 0.000000, 0.000000, 693.199997, 1557655311.598390, 4.000000, 2.000000, 0.000000, 4.000000, 4.000000
61.000000, 0.000000, 4184.615234, 4413.846191, 4114.358887, 4145.641113, 3823.076904, 0.000000, 8145.000000, 8336.000000, 0.000000, 0.000000, 0.000000, 0.000000, 701.199997, 1557655311.606390, 4.000000, 2.000000, 0.000000, 4.000000, 4.000000
62.000000, 0.000000, 4169.743652, 4431.794922, 4079.487061, 4143.076660, 3828.717773, 0.000000, 8143.000000, 8337.000000, 0.000000, 0.000000, 0.000000, 0.000000, 709.199997, 1557655311.614390, 4.000000, 2.000000, 0.000000, 4.000000, 4.000000
63.000000, 0.000000, 4170.769043, 4450.769043, 4082.051270, 4140.512695, 3834.871582, 0.000000, 8147.000000, 8332.000000, 0.000000, 0.000000, 0.000000, 0.000000, 716.900009, 1557655311.622090, 4.000000, 2.000000, 0.000000, 4.000000, 4.000000
64.000000, 0.000000, 4167.179199, 4438.974121, 4118.974121, 4134.358887, 3826.153809, 500.000000, 8149.000000, 8328.000000, 0.000000, 0.000000, 0.000000, 0.000000, 724.900009, 1557655311.630090, 4.000000, 2.000000, 0.000000, 4.000000, 4.000000
65.000000, 0.000000, 4156.922852, 4430.256348, 4052.820313, 4130.769043, 3817.948730, 500.000000, 8147.000000, 8335.000000, 0.000000, 0.000000, 0.000000, 0.000000, 732.699997, 1557655311.637890, 4.000000, 2.000000, 0.000000, 4.000000, 4.000000
66.000000, 0.000000, 4160.512695, 4433.846191, 4117.948730, 4135.384277, 3828.205078, 16215.000000, 8144.000000, 8329.000000, 0.000000, 0.000000, 0.000000, 0.000000, 740.499985, 1557655311.645690, 4.000000, 2.000000, 0.000000, 4.000000, 4.000000
67.000000, 0.000000, 4176.410156, 4427.179199, 4096.410156, 4120.512695, 3843.589600, 500.000000, 8149.000000, 8334.000000, 0.000000, 0.000000, 0.000000, 0.000000, 748.299973, 1557655311.653490, 4.000000, 2.000000, 0.000000, 4.000000, 4.000000
68.000000, 0.000000, 4180.000000, 4422.563965, 4063.076904, 4109.743652, 3859.487061, 188.000000, 8147.000000, 8340.000000, 0.000000, 0.000000, 0.000000, 0.000000, 756.199997, 1557655311.661390, 4.000000, 2.000000, 0.000000, 4.000000, 4.000000
69.000000, 0.000000, 4177.436035, 4432.307617, 4111.281738, 4128.205078, 3885.640869, 500.000000, 8147.000000, 8352.000000, 0.000000, 0.000000, 0.000000, 0.000000, 764.199997, 1557655311.669390, 4.000000, 2.000000, 0.000000, 4.000000, 4.000000
70.000000, 0.000000, 4187.179199, 4438.974121, 4064.102539, 4134.358887, 3904.102539, 48.000000, 8141.000000, 8342.000000, 0.000000, 0.000000, 0.000000, 0.000000, 772.199997, 1557655311.677390, 4.000000, 2.000000, 0.000000, 4.000000, 4.000000
71.000000, 0.000000, 4203.076660, 4445.641113, 4122.051270, 4144.102539, 3910.256348, 500.000000, 8145.000000, 8348.000000, 0.000000, 0.000000, 0.000000, 0.000000, 780.199997, 1557655311.685390, 4.000000, 2.000000, 0.000000, 4.000000, 4.000000
72.000000, 0.000000, 4211.794922, 4453.846191, 4111.794922, 4162.563965, 3918.461426, 500.000000, 8139.000000, 8359.000000, 0.000000, 0.000000, 0.000000, 0.000000, 788.100021, 1557655311.693290, 4.000000, 2.000000, 0.000000, 4.000000, 4.000000
73.000000, 0.000000, 4216.410156, 4442.563965, 4076.410156, 4155.384277, 3928.205078, 16082.000000, 8142.000000, 8353.000000, 0.000000, 0.000000, 0.000000, 0.000000, 795.999985, 1557655311.701190, 4.000000, 2.000000, 0.000000, 4.000000, 4.000000
74.000000, 0.000000, 4217.948730, 4435.384277, 4122.563965, 4130.256348, 3934.358887, 500.000000, 8142.000000, 8349.000000, 0.000000, 0.000000, 0.000000, 0.000000, 803.799973, 1557655311.708990, 4.000000, 2.000000, 0.000000, 4.000000, 4.000000
75.000000, 0.000000, 4203.076660, 4444.102539, 4056.410156, 4112.307617, 3932.307617, 16188.000000, 8145.000000, 8354.000000, 0.000000, 0.000000, 0.000000, 0.000000, 811.600021, 1557655311.716790, 4.000000, 2.000000, 0.000000, 4.000000, 4.000000
76.000000, 0.000000, 4194.358887, 4425.641113, 4092.307617, 4127.179199, 3930.256348, 500.000000, 8149.000000, 8353.000000, 0.000000, 0.000000, 0.000000, 0.000000, 819.400009, 1557655311.724590, 4.000000, 2.000000, 0.000000, 4.000000, 4.000000
77.000000, 0.000000, 4207.179199, 4409.743652, 4092.820313, 4143.589844, 3942.051270, 500.000000, 8145.000000, 8352.000000, 0.000000, 0.000000, 0.000000, 0.000000, 827.199997, 1557655311.732390, 4.000000, 2.000000, 0.000000, 4.000000, 4.000000
78.000000, 0.000000, 4216.410156, 4433.333008, 4061.025635, 4129.743652, 3947.692139, 450.000000, 8144.000000, 8363.000000, 0.000000, 0.000000, 0.000000, 0.000000, 835.100021, 1557655311.740290, 4.000000, 2.000000, 0.000000, 4.000000, 4.000000
79.000000, 0.000000, 4226.153809, 4445.127930, 4120.512695, 4111.281738, 3944.615234, 16188.000000, 8146.000000, 8364.000000, 0.000000, 0.000000, 0.000000, 0.000000, 843.100021, 1557655311.748290, 4.000000, 2.000000, 0.000000, 4.000000, 4.000000
80.000000, 0.000000, 4236.410156, 4424.615234, 4054.358887, 4100.512695, 3953.845947, 450.000000, 8152.000000, 8360.000000, 0.000000, 0.000000, 0.000000, 0.000000, 851.100021, 1557655311.756290, 4.000000, 2.000000, 0.000000, 4.000000, 4.000000
81.000000, 0.000000, 4235.897461, 4421.538574, 4081.025635, 4106.153809, 3977.948730, 450.000000, 8146.000000, 8367.000000, 0.000000, 0.000000, 0.000000, 0.000000, 858.900009, 1557655311.764090, 4.000000, 2.000000, 0.000000, 4.000000, 4.000000
82.000000, 0.000000, 4228.717773, 4434.871582, 4094.871582, 4100.000000, 3991.281982, 450.000000, 8142.000000, 8368.000000, 0.000000, 0.000000, 0.000000, 0.000000, 866.699997, 1557655311.771890, 4.000000, 2.000000, 0.000000, 4.000000, 4.000000
83.000000, 0.000000, 4216.410156, 4427.692383, 4039.487061, 4078.461426, 3986.666504, 16188.000000, 8145.000000, 8358.000000, 0.000000, 0.000000, 0.000000, 0.000000, 874.399997, 1557655311.779590, 4.000000, 2.000000, 0.000000, 4.000000, 4.000000
84.000000, 0.000000, 4208.717773, 4410.256348, 4094.358887, 4077.948730, 3988.717773, 450.000000, 8156.000000, 8349.000000, 0.000000, 0.000000, 0.000000, 0.000000, 882.199997, 1557655311.787390, 4.000000, 2.000000, 0.000000, 4.000000, 4.000000
85.000000, 0.000000, 4211.794922, 4406.666504, 4052.820313, 4075.384521, 3990.256348, 450.000000, 8155.000000, 8364.000000, 0.000000, 0.000000, 0.000000, 0.000000, 890.099997, 1557655311.795290, 4.000000, 2.000000, 0.000000, 4.000000, 4.000000
86.000000, 0.000000, 4223.076660, 4415.384277, 4077.948730, 4066.666504, 3969.230713, 450.000000, 8151.000000, 8364.000000, 0.000000, 0.000000, 0.000000, 0.000000, 898.099998, 1557655311.803290, 4.000000, 2.000000, 0.000000, 4.000000, 4.000000
87.000000, 0.000000, 4227.692383, 4414.358887, 4097.436035, 4059.487061, 3928.717773, 16188.000000, 8152.000000, 8352.000000, 0.000000, 0.000000, 0.000000, 0.000000, 906.099998, 1557655311.811290, 4.000000, 2.000000, 0.000000, 4.000000, 4.000000
88.000000, 0.000000, 4224.615234, 4402.051270, 4035.384521, 4048.205078, 3904.615234, 450.000000, 8153.000000, 8352.000000, 0.000000, 0.000000, 0.000000, 0.000000, 913.999996, 1557655311.819190, 4.000000, 2.000000, 0.000000, 4.000000, 4.000000
89.000000, 0.000000, 4220.000000, 4398.461426, 4095.384521, 4041.025635, 3919.487061, 450.000000, 8156.000000, 8352.000000, 0.000000, 0.000000, 0.000000, 0.000000, 921.799995, 1557655311.826990, 4.000000, 2.000000, 0.000000, 4.000000, 4.000000
90.000000, 0.000000, 4217.436035, 4397.948730, 4057.435791, 4040.000000, 3938.974365, 450.000000, 8163.000000, 8351.000000, 0.000000, 0.000000, 0.000000, 0.000000, 929.599998, 1557655311.834790, 4.000000, 2.000000, 0.000000, 4.000000, 4.000000
91.000000, 0.000000, 4230.256348, 4404.615234, 4064.615234, 4065.128174, 3951.794678, 16188.000000, 8160.000000, 8351.000000, 0.000000, 0.000000, 0.000000, 0.000000, 937.399994, 1557655311.842590, 4.000000, 2.000000, 0.000000, 4.000000, 4.000000
92.000000, 0.000000, 4231.794922, 4414.871582, 4098.461426, 4081.538330, 3972.307617, 450.000000, 8152.000000, 8351.000000, 0.000000, 0.000000, 0.000000, 0.000000, 945.199997, 1557655311.850390, 4.000000, 2.000000, 0.000000, 4.000000, 4.000000
93.000000, 0.000000, 4220.000000, 4412.820313, 4045.128174, 4061.025635, 3997.435791, 450.000000, 8159.000000, 8342.000000, 0.000000, 0.000000, 0.000000, 0.000000, 953.000000, 1557655311.858190, 4.000000, 2.000000, 0.000000, 4.000000, 4.000000
94.000000, 0.000000, 4233.333008, 4409.230469, 4103.589844, 4054.871582, 4025.640869, 450.000000, 8156.000000, 8338.000000, 0.000000, 0.000000, 0.000000, 0.000000, 961.000000, 1557655311.866190, 4.000000, 2.000000, 0.000000, 4.000000, 4.000000
95.000000, 0.000000, 4234.358887, 4403.076660, 4054.358887, 4051.794678, 4036.923096, 16188.000000, 8156.000000, 8349.000000, 0.000000, 0.000000, 0.000000, 0.000000, 969.000000, 1557655311.874190, 4.000000, 2.000000, 0.000000, 4.000000, 4.000000
96.000000, 0.000000, 4211.281738, 4391.281738, 4043.589600, 4037.948730, 4036.410156, 450.000000, 8154.000000, 8340.000000, 0.000000, 0.000000, 0.000000, 0.000000, 977.000000, 1557655311.882190, 4.000000, 2.000000, 0.000000, 4.000000, 4.000000
97.000000, 0.000000, 4222.563965, 4390.256348, 4098.461426, 4044.102539, 4057.948730, 450.000000, 8150.000000, 8337.000000, 0.000000, 0.000000, 0.000000, 0.000000, 984.799995, 1557655311.889990, 4.000000, 2.000000, 0.000000, 4.000000, 4.000000
98.000000, 0.000000, 4237.436035, 4387.692383, 4035.897217, 4046.153809, 4075.897217, 450.000000, 8150.000000, 8354.000000, 0.000000, 0.000000, 0.000000, 0.000000, 992.599991, 1557655311.897790, 4.000000, 2.000000, 0.000000, 4.000000, 4.000000
99.000000, 0.000000, 4224.102539, 4374.871582, 4079.487061, 4030.769043, 4075.897217, 16188.000000, 8145.000000, 8346.000000, 0.000000, 0.000000, 0.000000, 1.000000, 0.300003, 1557655311.905490, 4.000000, 2.000000, 0.000000, 4.000000, 4.000000
100.000000, 0.000000, 4232.820313, 4377.948730, 4057.435791, 4020.000000, 4089.743408, 450.000000, 8144.000000, 8343.000000, 0.000000, 0.000000, 0.000000, 1.000000, 8.199997, 1557655311.913390, 4.000000, 2.000000, 0.000000, 4.000000, 4.000000
101.000000, 0.000000, 4249.743652, 4395.384277, 4040.512695, 4016.410156, 4110.256348, 450.000000, 8145.000000, 8342.000000, 0.000000, 0.000000, 0.000000, 1.000000, 16.199997, 1557655311.921390, 4.000000, 2.000000, 0.000000, 4.000000, 4.000000
102.000000, 0.000000, 4248.205078, 4402.563965, 4082.563965, 4005.128174, 4126.153809, 450.000000, 8149.000000, 8349.000000, 0.000000, 0.000000, 0.000000, 1.000000, 24.199997, 1557655311.929390, 4.000000, 2.000000, 0.000000, 4.000000, 4.000000
103.000000, 0.000000, 4246.666504, 4399.487305, 4012.307617, 4004.102539, 4149.230469, 16188.000000, 8144.000000, 8357.000000, 0.000000, 0.000000, 0.000000, 1.000000, 32.099991, 1557655311.937290, 4.000000, 2.000000, 0.000000, 4.000000, 4.000000
104.000000, 0.000000, 4241.025391, 4391.794922, 4055.897217, 4027.179443, 4164.615234, 450.000000, 8145.000000, 8351.000000, 0.000000, 0.000000, 0.000000, 1.000000, 40.000000, 1557655311.945190, 4.000000, 2.000000, 0.000000, 4.000000, 4.000000
105.000000, 0.000000, 4228.717773, 4377.435547, 4048.717773, 4021.538330, 4164.615234, 450.000000, 8145.000000, 8354.000000, 0.000000, 0.000000, 0.000000, 1.000000, 48.000000, 1557655311.953190, 4.000000, 2.000000, 0.000000, 4.000000, 4.000000
106.000000, 0.000000, 4229.743652, 4361.538574, 4022.563965, 3995.897217, 4171.281738, 450.000000, 8141.000000, 8349.000000, 0.000000, 0.000000, 0.000000, 1.000000, 55.800003, 1557655311.960990, 4.000000, 2.000000, 0.000000, 4.000000, 4.000000
107.000000, 0.000000, 4228.717773, 4363.076660, 4078.974365, 3992.307617, 4182.051270, 16188.000000, 8148.000000, 8349.000000, 0.000000, 0.000000, 0.000000, 1.000000, 63.599991, 1557655311.968790, 4.000000, 2.000000, 0.000000, 4.000000, 4.000000
108.000000, 0.000000, 4205.641113, 4369.230469, 4017.435791, 3976.410156, 4176.922852, 450.000000, 8145.000000, 8362.000000, 0.000000, 0.000000, 0.000000, 1.000000, 71.399994, 1557655311.976590, 4.000000, 2.000000, 0.000000, 4.000000, 4.000000
109.000000, 0.000000, 4196.922852, 4362.051270, 4051.281982, 3963.589600, 4189.230469, 450.000000, 8151.000000, 8358.000000, 0.000000, 0.000000, 0.000000, 1.000000, 79.099991, 1557655311.984290, 4.000000, 2.000000, 0.000000, 4.000000, 4.000000
110.000000, 0.000000, 4217.436035, 4360.000000, 4058.461426, 3987.179443, 4223.589844, 450.000000, 8146.000000, 8346.000000, 0.000000, 0.000000, 0.000000, 1.000000, 87.000000, 1557655311.992190, 4.000000, 2.000000, 0.000000, 4.000000, 4.000000
111.000000, 0.000000, 4231.794922, 4363.076660, 4027.179443, 4011.794678, 4236.410156, 16188.000000, 8147.000000, 8350.000000, 0.000000, 0.000000, 0.000000, 1.000000, 95.000000, 1557655312.000190, 4.000000, 2.000000, 0.000000, 4.000000, 4.000000
112.000000, 0.000000, 4237.948730, 4370.256348, 4081.538330, 4011.281982, 4242.563965, 450.000000, 8154.000000, 8357.000000, 0.000000, 0.000000, 0.000000, 1.000000, 103.000000, 1557655312.008190, 4.000000, 2.000000, 0.000000, 4.000000, 4.000000
113.000000, 0.000000, 4244.615234, 4382.563965, 4023.589600, 3997.948730, 4265.127930, 450.000000, 8162.000000, 8352.000000, 0.000000, 0.000000, 0.000000, 1.000000, 111.000000, 1557655312.016190, 4.000000, 2.000000, 0.000000, 4.000000, 4.000000
114.000000, 0.000000, 4246.153809, 4378.974121, 4055.897217, 3992.820313, 4289.743652, 450.000000, 8161.000000, 8350.000000, 0.000000, 0.000000, 0.000000, 1.000000, 118.900009, 1557655312.024090, 4.000000, 2.000000, 0.000000, 4.000000, 4.000000
115.000000, 0.000000, 4245.641113, 4364.102539, 4066.153809, 3988.717773, 4308.205078, 16188.000000, 8164.000000, 8348.000000, 0.000000, 0.000000, 0.000000, 1.000000, 126.699997, 1557655312.031890, 4.000000, 2.000000, 0.000000, 4.000000, 4.000000
116.000000, 0.000000, 4246.666504, 4368.717773, 4015.384521, 3990.256348, 4322.051270, 450.000000, 8162.000000, 8349.000000, 0.000000, 0.000000, 0.000000, 1.000000, 134.499985, 1557655312.039690, 4.000000, 2.000000, 0.000000, 4.000000, 4.000000
117.000000, 0.000000, 4242.563965, 4372.307617, 4076.410156, 4008.717773, 4331.281738, 450.000000, 8161.000000, 8350.000000, 0.000000, 0.000000, 0.000000, 1.000000, 142.300003, 1557655312.047490, 4.000000, 2.000000, 0.000000, 4.000000, 4.000000
118.000000, 0.000000, 4236.922852, 4355.897461, 4026.666504, 3999.487061, 4333.846191, 450.000000, 8159.000000, 8351.000000, 0.000000, 0.000000, 0.000000, 1.000000, 150.199997, 1557655312.055390, 4.000000, 2.000000, 0.000000, 4.000000, 4.000000
119.000000, 0.000000, 4246.153809, 4355.384277, 4044.615234, 3983.589600, 4336.922852, 16188.000000, 8161.000000, 8343.000000, 0.000000, 0.000000, 0.000000, 1.000000, 158.099991, 1557655312.063290, 4.000000, 2.000000, 0.000000, 4.000000, 4.000000
120.000000, 0.000000, 4253.333008, 4358.461426, 4064.102539, 3980.512695, 4334.871582, 450.000000, 8158.000000, 8344.000000, 0.000000, 0.000000, 0.000000, 1.000000, 166.099991, 1557655312.071290, 4.000000, 2.000000, 0.000000, 4.000000, 4.000000
121.000000, 0.000000, 4236.410156, 4335.384277, 4000.000000, 3967.179443, 4339.487305, 450.000000, 8152.000000, 8350.000000, 0.000000, 0.000000, 0.000000, 1.000000, 174.099991, 1557655312.079290, 4.000000, 2.000000, 0.000000, 4.000000, 4.000000
122.000000, 0.000000, 4227.692383, 4324.615234, 4061.025635, 3961.538330, 4360.512695, 450.000000, 8144.000000, 8342.000000, 0.000000, 0.000000, 0.000000, 1.000000, 182.099991, 1557655312.087290, 4.000000, 2.000000, 0.000000, 4.000000, 4.000000
123.000000, 0.000000, 4233.333008, 4342.051270, 4022.563965, 3954.358887, 4364.615234, 16188.000000, 8142.000000, 8337.000000, 0.000000, 0.000000, 0.000000, 1.000000, 189.900009, 1557655312.095090, 4.000000, 2.000000, 0.000000, 4.000000, 4.000000
124.000000, 0.000000, 4228.205078, 4350.256348, 4028.205078, 3951.794678, 4356.922852, 450.000000, 8139.000000, 8343.000000, 0.000000, 0.000000, 0.000000, 1.000000, 197.599991, 1557655312.102790, 4.000000, 2.000000, 0.000000, 4.000000, 4.000000
125.000000, 0.000000, 4220.512695, 4337.948730, 4068.205078, 3961.025635, 4371.281738, 450.000000, 8138.000000, 8355.000000, 0.000000, 0.000000, 0.000000, 1.000000, 205.400009, 1557655312.110590, 4.000000, 2.000000, 0.000000, 4.000000, 4.000000
126.000000, 0.000000, 4228.205078, 4328.205078, 4017.435791, 3958.461426, 4395.384277, 450.000000, 8141.000000, 8346.000000, 0.000000, 0.000000, 0.000000, 1.000000, 213.199997, 1557655312.118390, 4.000000, 2.000000, 0.000000, 4.000000, 4.000000
127.000000, 0.000000, 4243.076660, 4331.794922, 4072.820313, 3961.538330, 4411.794922, 16188.000000, 8138.000000, 8355.000000, 0.000000, 0.000000, 0.000000, 1.000000, 221.199997, 1557655312.126390, 4.000000, 2.000000, 0.000000, 4.000000, 4.000000
128.000000, 0.000000, 4245.641113, 4338.461426, 4032.820313, 3969.743408, 4426.666504, 500.000000, 8128.000000, 8361.000000, 0.000000, 0.000000, 0.000000, 1.000000, 229.199997, 1557655312.134390, 4.000000, 2.000000, 0.000000, 4.000000, 4.000000
0.000000, 0.000000, 4240.512695, 4330.769043, 4026.666504, 3974.871582, 4447.179199, 500.000000, 8129.000000, 8359.000000, 0.000000, 0.000000, 0.000000, 1.000000, 237.099991, 1557655312.142290, 4.000000, 2.000000, 0.000000, 4.000000, 4.000000
1.000000, 0.000000, 4236.410156, 4317.436035, 4069.230713, 3973.845947, 4455.897461, 500.000000, 8130.000000, 8364.000000, 0.000000, 0.000000, 0.000000, 1.000000, 245.099991, 1557655312.150290, 4.000000, 2.000000, 0.000000, 4.000000, 4.000000
2.000000, 0.000000, 4235.897461, 4314.358887, 4010.256348, 3969.743408, 4447.692383, 16213.000000, 8132.000000, 8358.000000, 0.000000, 0.000000, 0.000000, 1.000000, 253.099991, 1557655312.158290, 4.000000, 2.000000, 0.000000, 4.000000, 4.000000
3.000000, 0.000000, 4241.025391, 4314.871582, 4071.281982, 3982.563965, 4455.384277, 500.000000, 8133.000000, 8354.000000, 0.000000, 0.000000, 0.000000, 1.000000, 260.900009, 1557655312.166090, 4.000000, 2.000000, 0.000000, 4.000000, 4.000000
4.000000, 0.000000, 4241.025391, 4298.461426, 4048.717773, 3981.538330, 4477.948730, 201.000000, 8141.000000, 8352.000000, 0.000000, 0.000000, 0.000000, 1.000000, 268.699997, 1557655312.173890, 4.000000, 2.000000, 0.000000, 4.000000, 4.000000
5.000000, 0.000000, 4236.922852, 4272.307617, 4024.102539, 3963.589600, 4487.179199, 500.000000, 8133.000000, 8356.000000, 0.000000, 0.000000, 0.000000, 1.000000, 276.400009, 1557655312.181590, 4.000000, 2.000000, 0.000000, 4.000000, 4.000000
6.000000, 0.000000, 4238.974121, 4270.256348, 4073.845947, 3962.051270, 4490.769043, 57.000000, 8139.000000, 8355.000000, 0.000000, 0.000000, 0.000000, 1.000000, 284.199997, 1557655312.189390, 4.000000, 2.000000, 1.000000, 4.000000, 4.000000
7.000000, 0.000000, 4241.538574, 4283.589844, 4013.845947, 3963.589600, 4500.512695, 500.000000, 8141.000000, 8343.000000, 0.000000, 0.000000, 0.000000, 1.000000, 292.099991, 1557655312.197290, 4.000000, 2.000000, 1.000000, 4.000000, 4.000000
8.000000, 0.000000, 4242.051270, 4283.076660, 4056.923096, 3968.717773, 4515.384277, 500.000000, 8146.000000, 8348.000000, 0.000000, 0.000000, 0.000000, 1.000000, 300.099991, 1557655312.205290, 4.000000, 2.000000, 1.000000, 4.000000, 4.000000
9.000000, 0.000000, 4249.230469, 4271.794922, 4042.051270, 3966.153809, 4526.153809, 16082.000000, 8141.000000, 8356.000000, 0.000000, 0.000000, 0.000000, 1.000000, 308.099991, 1557655312.213290, 4.000000, 2.000000, 1.000000, 4.000000, 4.000000
10.000000, 0.000000, 4256.922852, 4277.948730, 4013.333252, 3953.333252, 4530.256348, 500.000000, 8152.000000, 8353.000000, 0.000000, 0.000000, 0.000000, 1.000000, 315.999985, 1557655312.221190, 4.000000, 2.000000, 1.000000, 4.000000, 4.000000
11.000000, 0.000000, 4258.461426, 4289.743652, 4075.897217, 3951.794678, 4533.846191, 16166.000000, 8152.000000, 8346.000000, 0.000000, 0.000000, 0.000000, 1.000000, 323.800003, 1557655312.228990, 4.000000, 2.000000, 1.000000, 4.000000, 4.000000
12.000000, 0.000000, 4257.948730, 4275.384277, 4015.897217, 3953.333252, 4540.512695, 500.000000, 8155.000000, 8351.000000, 0.000000, 0.000000, 0.000000, 1.000000, 331.599991, 1557655312.236790, 4.000000, 2.000000, 1.000000, 4.000000, 4.000000
13.000000, 0.000000, 4252.307617, 4261.538574, 4038.974365, 3945.640869, 4547.692383, 500.000000, 8156.000000, 8350.000000, 0.000000, 0.000000, 0.000000, 1.000000, 339.400009, 1557655312.244590, 4.000000, 2.000000, 1.000000, 4.000000, 4.000000
14.000000, 0.000000, 4244.102539, 4269.230469, 4030.769043, 3929.230713, 4545.127930, 450.000000, 8153.000000, 8341.000000, 0.000000, 0.000000, 0.000000, 1.000000, 347.199997, 1557655312.252390, 4.000000, 2.000000, 1.000000, 4.000000, 4.000000
15.000000, 0.000000, 4248.717773, 4274.871582, 4003.589600, 3938.974365, 4545.127930, 16166.000000, 8154.000000, 8341.000000, 0.000000, 0.000000, 0.000000, 1.000000, 354.999985, 1557655312.260190, 4.000000, 2.000000, 1.000000, 4.000000, 4.000000
16.000000, 0.000000, 4260.512695, 4271.794922, 4082.051270, 3963.589600, 4563.076660, 0.000000, 8155.000000, 8337.000000, 0.000000, 0.000000, 0.000000, 1.000000, 362.999985, 1557655312.268190, 4.000000, 2.000000, 1.000000, 4.000000, 4.000000
17.000000, 0.000000, 4255.897461, 4271.281738, 4021.538330, 3942.563965, 4576.410156, 0.000000, 8160.000000, 8339.000000, 0.000000, 0.000000, 0.000000, 1.000000, 370.999985, 1557655312.276190, 4.000000, 2.000000, 1.000000, 4.000000, 4.000000
18.000000, 0.000000, 4255.384277, 4273.333008, 4034.358887, 3924.102539, 4577.435547, 0.000000, 8159.000000, 8346.000000, 0.000000, 0.000000, 0.000000, 1.000000, 378.999985, 1557655312.284190, 4.000000, 2.000000, 1.000000, 4.000000, 4.000000
19.000000, 0.000000, 4265.127930, 4266.666504, 4047.692139, 3938.974365, 4588.717773, 0.000000, 8149.000000, 8346.000000, 0.000000, 0.000000, 0.000000, 1.000000, 386.799973, 1557655312.291990, 4.000000, 2.000000, 1.000000, 4.000000, 4.000000
20.000000, 0.000000, 4248.205078, 4258.461426, 4002.563965, 3939.487061, 4596.410156, 0.000000, 8148.000000, 8338.000000, 0.000000, 0.000000, 0.000000, 1.000000, 394.600021, 1557655312.299790, 4.000000, 2.000000, 1.000000, 4.000000, 4.000000
21.000000, 0.000000, 4233.333008, 4264.615234, 4068.717773, 3939.487061, 4592.820313, 0.000000, 8145.000000, 8337.000000, 0.000000, 0.000000, 0.000000, 1.000000, 402.299973, 1557655312.307490, 4.000000, 2.000000, 1.000000, 4.000000, 4.000000
22.000000, 0.000000, 4259.487305, 4270.769043, 4027.179443, 3948.717773, 4600.512695, 0.000000, 8146.000000, 8352.000000, 0.000000, 0.000000, 0.000000, 1.000000, 410.100021, 1557655312.315290, 4.000000, 2.000000, 1.000000, 4.000000, 4.000000
23.000000, 0.000000, 4285.641113, 4275.897461, 4046.153809, 3953.845947, 4614.871582, 0.000000, 8145.000000, 8344.000000, 0.000000, 0.000000, 0.000000, 1.000000, 418.100021, 1557655312.323290, 4.000000, 2.000000, 1.000000, 4.000000, 4.000000
24.000000, 0.000000, 4284.615234, 4289.743652, 4069.230713, 3952.820313, 4616.922852, 0.000000, 8142.000000, 8332.000000, 0.000000, 0.000000, 0.000000, 1.000000, 426.100021, 1557655312.331290, 4.000000, 2.000000, 1.000000, 4.000000, 4.000000
25.000000, 0.000000, 4291.281738, 4300.000000, 4014.871582, 3956.923096, 4630.256348, 0.000000, 8146.000000, 8339.000000, 0.000000, 0.000000, 0.000000, 1.000000, 434.100021, 1557655312.339290, 4.000000, 2.000000, 1.000000, 4.000000, 4.000000
26.000000, 0.000000, 4321.025391, 4298.974121, 4073.845947, 3976.410156, 4667.179199, 0.000000, 8146.000000, 8352.000000, 0.000000, 0.000000, 0.000000, 1.000000, 441.999985, 1557655312.347190, 4.000000, 2.000000, 1.000000, 4.000000, 4.000000
27.000000, 0.000000, 4330.769043, 4301.538574, 4030.256348, 3975.384521, 4685.127930, 0.000000, 8147.000000, 8344.000000, 0.000000, 0.000000, 0.000000, 1.000000, 449.999985, 1557655312.355190, 4.000000, 2.000000, 1.000000, 4.000000, 4.000000
28.000000, 0.000000, 4316.922852, 4309.230469, 4032.820313, 3967.692139, 4680.000000, 0.000000, 8143.000000, 8348.000000, 0.000000, 0.000000, 0.000000, 1.000000, 457.799973, 1557655312.362990, 4.000000, 2.000000, 1.000000, 4.000000, 4.000000
29.000000, 0.000000, 4312.307617, 4310.769043, 4062.051270, 3973.845947, 4676.922852, 0.000000, 8144.000000, 8341.000000, 0.000000, 0.000000, 0.000000, 1.000000, 465.600021, 1557655312.370790, 4.000000, 2.000000, 1.000000, 4.000000, 4.000000
30.000000, 0.000000, 4316.410156, 4321.538574, 4004.615234, 3975.897217, 4681.538574, 0.000000, 8145.000000, 8348.000000, 0.000000, 0.000000, 0.000000, 1.000000, 473.400009, 1557655312.378590, 4.000000, 2.000000, 1.000000, 4.000000, 4.000000
31.000000, 0.000000, 4325.641113, 4331.281738, 4069.743408, 3974.871582, 4699.487305, 0.000000, 8146.000000, 8353.000000, 0.000000, 0.000000, 0.000000, 1.000000, 481.100021, 1557655312.386290, 4.000000, 2.000000, 1.000000, 4.000000, 4.000000
32.000000, 0.000000, 4336.922852, 4317.948730, 4041.025635, 3970.769043, 4709.743652, 0.000000, 8147.000000, 8355.000000, 0.000000, 0.000000, 0.000000, 1.000000, 489.100021, 1557655312.394290, 4.000000, 2.000000, 1.000000, 4.000000, 4.000000
33.000000, 0.000000, 4341.025391, 4305.641113, 4034.871582, 3980.512695, 4708.205078, 0.000000, 8151.000000, 8348.000000, 0.000000, 0.000000, 0.000000, 1.000000, 497.100021, 1557655312.402290, 4.000000, 2.000000, 1.000000, 4.000000, 4.000000
34.000000, 0.000000, 4337.436035, 4311.794922, 4072.307617, 3989.743408, 4720.512695, 0.000000, 8150.000000, 8352.000000, 0.000000, 0.000000, 0.000000, 1.000000, 505.100021, 1557655312.410290, 4.000000, 2.000000, 1.000000, 4.000000, 4.000000
35.000000, 0.000000, 4334.871582, 4325.641113, 4008.205078, 3973.845947, 4730.256348, 0.000000, 8143.000000, 8362.000000, 0.000000, 0.000000, 0.000000, 1.000000, 513.100021, 1557655312.418290, 4.000000, 2.000000, 1.000000, 4.000000, 4.000000
36.000000, 0.000000, 4337.436035, 4334.871582, 4063.076904, 3969.230713, 4721.538574, 0.000000, 8145.000000, 8366.000000, 0.000000, 0.000000, 0.000000, 1.000000, 520.799973, 1557655312.425990, 4.000000, 2.000000, 1.000000, 4.000000, 4.000000
37.000000, 0.000000, 4332.307617, 4321.025391, 4040.000000, 3970.769043, 4712.307617, 0.000000, 8147.000000, 8357.000000, 0.000000, 0.000000, 0.000000, 1.000000, 528.600021, 1557655312.433790, 4.000000, 2.000000, 1.000000, 4.000000, 4.000000
38.000000, 0.000000, 4321.538574, 4292.820313, 4020.000000, 3968.717773, 4716.922852, 0.000000, 8143.000000, 8347.000000, 0.000000, 0.000000, 0.000000, 1.000000, 536.400009, 1557655312.441590, 4.000000, 2.000000, 1.000000, 4.000000, 4.000000
39.000000, 0.000000, 4324.615234, 4298.461426, 4069.230713, 3969.743408, 4732.820313, 0.000000, 8144.000000, 8358.000000, 0.000000, 0.000000, 0.000000, 1.000000, 544.199997, 1557655312.449390, 4.000000, 2.000000, 1.000000, 4.000000, 4.000000
40.000000, 0.000000, 4321.538574, 4307.692383, 3994.358887, 3960.000000, 4733.333008, 0.000000, 8143.000000, 8353.000000, 0.000000, 0.000000, 0.000000, 1.000000, 552.199997, 1557655312.457390, 4.000000, 2.000000, 1.000000, 4.000000, 4.000000
41.000000, 0.000000, 4305.641113, 4282.051270, 4030.256348, 3955.384521, 4721.538574, 0.000000, 8138.000000, 8355.000000, 0.000000, 0.000000, 0.000000, 1.000000, 560.100021, 1557655312.465290, 4.000000, 2.000000, 1.000000, 4.000000, 4.000000
42.000000, 0.000000, 4314.871582, 4278.974121, 4030.769043, 3966.153809, 4725.641113, 0.000000, 8144.000000, 8354.000000, 0.000000, 0.000000, 0.000000, 1.000000, 568.100021, 1557655312.473290, 4.000000, 2.000000, 1.000000, 4.000000, 4.000000
43.000000, 0.000000, 4337.436035, 4304.615234, 4012.307617, 3970.769043, 4731.794922, 0.000000, 8149.000000, 8356.000000, 0.000000, 0.000000, 0.000000, 1.000000, 576.100021, 1557655312.481290, 4.000000, 2.000000, 1.000000, 4.000000, 4.000000
44.000000, 0.000000, 4336.922852, 4310.256348, 4071.794678, 3960.512695, 4721.538574, 0.000000, 8145.000000, 8359.000000, 0.000000, 0.000000, 0.000000, 1.000000, 583.900009, 1557655312.489090, 4.000000, 2.000000, 1.000000, 4.000000, 4.000000
45.000000, 0.000000, 4326.666504, 4303.589844, 4008.205078, 3945.640869, 4713.333008, 0.000000, 8144.000000, 8355.000000, 0.000000, 0.000000, 0.000000, 1.000000, 591.699997, 1557655312.496890, 4.000000, 2.000000, 1.000000, 4.000000, 4.000000
46.000000, 0.000000, 4332.307617, 4314.871582, 4041.538330, 3948.205078, 4724.615234, 0.000000, 8146.000000, 8343.000000, 0.000000, 0.000000, 0.000000, 1.000000, 599.400009, 1557655312.504590, 4.000000, 2.000000, 1.000000, 4.000000, 4.000000
47.000000, 0.000000, 4337.948730, 4321.025391, 4043.076904, 3951.794678, 4736.922852, 0.000000, 8149.000000, 8352.000000, 0.000000, 0.000000, 0.000000, 1.000000, 607.199997, 1557655312.512390, 4.000000, 2.000000, 1.000000, 4.000000, 4.000000
48.000000, 0.000000, 4329.743652, 4310.769043, 4003.076904, 3956.410156, 4737.948730, 0.000000, 8148.000000, 8354.000000, 0.000000, 0.000000, 0.000000, 1.000000, 615.199997, 1557655312.520390, 4.000000, 2.000000, 1.000000, 4.000000, 4.000000
49.000000, 0.000000, 4321.538574, 4321.025391, 4068.205078, 3969.743408, 4741.025391, 0.000000, 8144.000000, 8357.000000, 0.000000, 0.000000, 0.000000, 1.000000, 623.199997, 1557655312.528390, 4.000000, 2.000000, 1.000000, 4.000000, 4.000000
50.000000, 0.000000, 4311.794922, 4329.230469, 4013.333252, 3962.051270, 4741.025391, 0.000000, 8142.000000, 8347.000000, 0.000000, 0.000000, 0.000000, 1.000000, 631.100021, 1557655312.536290, 4.000000, 2.000000, 1.000000, 4.000000, 4.000000
51.000000, 0.000000, 4311.281738, 4315.897461, 4032.307617, 3956.410156, 4729.230469, 0.000000, 8152.000000, 8343.000000, 0.000000, 0.000000, 0.000000, 1.000000, 638.999985, 1557655312.544190, 4.000000, 2.000000, 1.000000, 4.000000, 4.000000
52.000000, 0.000000, 4322.563965, 4314.871582, 4042.563965, 3955.384521, 4716.922852, 0.000000, 8149.000000, 8350.000000, 0.000000, 0.000000, 0.000000, 1.000000, 646.999985, 1557655312.552190, 4.000000, 2.000000, 1.000000, 4.000000, 4.000000
53.000000, 0.000000, 4322.563965, 4322.051270, 3994.871582, 3945.640869, 4719.487305, 0.000000, 8147.000000, 8355.000000, 0.000000, 0.000000, 0.000000, 1.000000, 654.799973, 1557655312.559990, 4.000000, 2.000000, 1.000000, 4.000000, 4.000000
54.000000, 0.000000, 4313.846191, 4318.461426, 4059.487061, 3950.256348, 4737.435547, 0.000000, 8150.000000, 8345.000000, 0.000000, 0.000000, 0.000000, 1.000000, 662.600021, 1557655312.567790, 4.000000, 2.000000, 1.000000, 4.000000, 4.000000
55.000000, 0.000000, 4316.922852, 4315.897461, 4018.974365, 3958.974365, 4742.563965, 0.000000, 8143.000000, 8349.000000, 0.000000, 0.000000, 0.000000, 1.000000, 670.600021, 1557655312.575790, 4.000000, 2.000000, 1.000000, 4.000000, 4.000000
56.000000, 0.000000, 4333.846191, 4327.692383, 4042.051270, 3972.307617, 4732.307617, 0.000000, 8150.000000, 8344.000000, 0.000000, 0.000000, 0.000000, 1.000000, 678.299973, 1557655312.583490, 4.000000, 2.000000, 1.000000, 4.000000, 4.000000
57.000000, 0.000000, 4345.127930, 4336.922852, 4068.205078, 3988.717773, 4738.461426, 0.000000, 8140.000000, 8342.000000, 0.000000, 0.000000, 0.000000, 1.000000, 686.100021, 1557655312.591290, 4.000000, 2.000000, 1.000000, 4.000000, 4.000000
58.000000, 0.000000, 4343.076660, 4321.538574, 4009.230713, 3985.128174, 4753.333008, 0.000000, 8138.000000, 8350.000000, 0.000000, 0.000000, 0.000000, 1.000000, 694.100021, 1557655312.599290, 4.000000, 2.000000, 1.000000, 4.000000, 4.000000
59.000000, 0.000000, 4340.512695, 4300.512695, 4054.871582, 3971.281982, 4751.281738, 0.000000, 8147.000000, 8346.000000, 0.000000, 0.000000, 0.000000, 1.000000, 702.100021, 1557655312.607290, 4.000000, 2.000000, 1.000000, 4.000000, 4.000000
60.000000, 0.000000, 4326.153809, 4297.948730, 4008.717773, 3952.307617, 4734.871582, 0.000000, 8142.000000, 8345.000000, 0.000000, 0.000000, 0.000000, 1.000000, 710.100021, 1557655312.615290, 4.000000, 2.000000, 1.000000, 4.000000, 4.000000
61.000000, 0.000000, 4308.205078, 4302.051270, 4023.589600, 3952.307617, 4729.230469, 0.000000, 8147.000000, 8351.000000, 0.000000, 0.000000, 0.000000, 1.000000, 717.799973, 1557655312.622990, 4.000000, 2.000000, 1.000000, 4.000000, 4.000000
62.000000, 0.000000, 4311.281738, 4300.512695, 4058.461426, 3962.563965, 4731.281738, 0.000000, 8138.000000, 8352.000000, 0.000000, 0.000000, 0.000000, 1.000000, 725.600021, 1557655312.630790, 4.000000, 2.000000, 1.000000, 4.000000, 4.000000
63.000000, 0.000000, 4316.922852, 4309.230469, 3990.256348, 3956.410156, 4732.820313, 0.000000, 8142.000000, 8346.000000, 0.000000, 0.000000, 0.000000, 1.000000, 733.400009, 1557655312.638590, 4.000000, 2.000000, 1.000000, 4.000000, 4.000000
64.000000, 0.000000, 4316.410156, 4326.153809, 4053.333252, 3958.974365, 4738.461426, 500.000000, 8139.000000, 8349.000000, 0.000000, 0.000000, 0.000000, 1.000000, 741.199997, 1557655312.646390, 4.000000, 2.000000, 1.000000, 4.000000, 4.000000
65.000000, 0.000000, 4322.563965, 4326.153809, 4027.179443, 3962.563965, 4731.281738, 500.000000, 8138.000000, 8359.000000, 0.000000, 0.000000, 0.000000, 1.000000, 749.199997, 1557655312.654390, 4.000000, 2.000000, 1.000000, 4.000000, 4.000000
66.000000, 0.000000, 4303.589844, 4303.076660, 4004.102539, 3943.076904, 4705.641113, 16203.000000, 8146.000000, 8357.000000, 0.000000, 0.000000, 0.000000, 1.000000, 757.100021, 1557655312.662290, 4.000000, 2.000000, 1.000000, 4.000000, 4.000000
67.000000, 0.000000, 4259.487305, 4279.487305, 4036.410156, 3917.948730, 4682.563965, 500.000000, 8144.000000, 8352.000000, 0.000000, 0.000000, 0.000000, 1.000000, 765.100021, 1557655312.670290, 4.000000, 2.000000, 1.000000, 4.000000, 4.000000
68.000000, 0.000000, 4252.820313, 4288.717773, 3987.692139, 3919.487061, 4672.820313, 199.000000, 8146.000000, 8352.000000, 0.000000, 0.000000, 0.000000, 1.000000, 773.100021, 1557655312.678290, 4.000000, 2.000000, 1.000000, 4.000000, 4.000000
69.000000, 0.000000, 4266.666504, 4307.179199, 4051.281982, 3948.205078, 4669.743652, 500.000000, 8150.000000, 8354.000000, 0.000000, 0.000000, 0.000000, 1.000000, 780.900009, 1557655312.686090, 4.000000, 2.000000, 1.000000, 4.000000, 4.000000
70.000000, 0.000000, 4247.692383, 4299.487305, 4021.538330, 3944.615234, 4651.794922, 73.000000, 8149.000000, 8350.000000, 0.000000, 0.000000, 0.000000, 1.000000, 788.699997, 1557655312.693890, 4.000000, 2.000000, 1.000000, 4.000000, 4.000000
71.000000, 0.000000, 4230.256348, 4292.307617, 3993.845947, 3921.025635, 4637.948730, 500.000000, 8151.000000, 8355.000000, 0.000000, 0.000000, 0.000000, 1.000000, 796.499985, 1557655312.701690, 4.000000, 2.000000, 1.000000, 4.000000, 4.000000
72.000000, 0.000000, 4241.538574, 4303.076660, 4051.281982, 3926.666504, 4655.897461, 500.000000, 8150.000000, 8360.000000, 0.000000, 0.000000, 0.000000, 1.000000, 804.199997, 1557655312.709390, 4.000000, 2.000000, 1.000000, 4.000000, 4.000000
73.000000, 0.000000, 4247.179199, 4305.641113, 3989.230713, 3939.487061, 4669.230469, 16082.000000, 8158.000000, 8355.000000, 0.000000, 0.000000, 0.000000, 1.000000, 812.199997, 1557655312.717390, 4.000000, 2.000000, 1.000000, 4.000000, 4.000000
74.000000, 0.000000, 4252.307617, 4295.897461, 4022.051270, 3952.307617, 4665.641113, 500.000000, 8158.000000, 8361.000000, 0.000000, 0.000000, 0.000000, 1.000000, 820.100021, 1557655312.725290, 4.000000, 2.000000, 1.000000, 4.000000, 4.000000
75.000000, 0.000000, 4263.589844, 4297.948730, 4016.410156, 3962.563965, 4674.358887, 16149.000000, 8161.000000, 8358.000000, 0.000000, 0.000000, 0.000000, 1.000000, 828.100021, 1557655312.733290, 4.000000, 2.000000, 1.000000, 4.000000, 4.000000
76.000000, 0.000000, 4256.410156, 4313.846191, 4000.512695, 3956.410156, 4677.948730, 500.000000, 8161.000000, 8350.000000, 0.000000, 0.000000, 0.000000, 1.000000, 836.100021, 1557655312.741290, 4.000000, 2.000000, 1.000000, 4.000000, 4.000000
77.000000, 0.000000, 4250.256348, 4319.487305, 4054.358887, 3946.153809, 4661.538574, 500.000000, 8156.000000, 8348.000000, 0.000000, 0.000000, 0.000000, 1.000000, 843.999985, 1557655312.749190, 4.000000, 2.000000, 1.000000, 4.000000, 4.000000
78.000000, 0.000000, 4264.615234, 4306.153809, 3989.230713, 3941.538330, 4655.897461, 450.000000, 8153.000000, 8354.000000, 0.000000, 0.000000, 0.000000, 1.000000, 851.799973, 1557655312.756990, 4.000000, 2.000000, 1.000000, 4.000000, 4.000000
79.000000, 0.000000, 4273.333008, 4307.179199, 4034.871582, 3950.256348, 4669.743652, 16149.000000, 8156.000000, 8352.000000, 0.000000, 0.000000, 0.000000, 1.000000, 859.599997, 1557655312.764790, 4.000000, 2.000000, 1.000000, 4.000000, 4.000000
80.000000, 0.000000, 4254.358887, 4322.051270, 4032.307617, 3944.102539, 4668.205078, 450.000000, 8156.000000, 8346.000000, 0.000000, 0.000000, 0.000000, 1.000000, 867.399997, 1557655312.772590, 4.000000, 2.000000, 1.000000, 4.000000, 4.000000
81.000000, 0.000000, 4232.820313, 4312.307617, 3974.358887, 3921.025635, 4647.179199, 450.000000, 8150.000000, 8341.000000, 0.000000, 0.000000, 0.000000, 1.000000, 875.299997, 1557655312.780490, 4.000000, 2.000000, 1.000000, 4.000000, 4.000000
82.000000, 0.000000, 4232.307617, 4301.025391, 4042.051270, 3917.948730, 4635.384277, 450.000000, 8156.000000, 8342.000000, 0.000000, 0.000000, 0.000000, 1.000000, 883.099997, 1557655312.788290, 4.000000, 2.000000, 1.000000, 4.000000, 4.000000
83.000000, 0.000000, 4235.897461, 4310.256348, 3998.461426, 3922.051270, 4629.743652, 16149.000000, 8151.000000, 8342.000000, 0.000000, 0.000000, 0.000000, 1.000000, 891.099997, 1557655312.796290, 4.000000, 2.000000, 1.000000, 4.000000, 4.000000
84.000000, 0.000000, 4233.333008, 4305.127930, 4020.512695, 3924.615234, 4620.512695, 450.000000, 8144.000000, 8346.000000, 0.000000, 0.000000, 0.000000, 1.000000, 898.899998, 1557655312.804090, 4.000000, 2.000000, 1.000000, 4.000000, 4.000000
85.000000, 0.000000, 4236.922852, 4283.589844, 4038.461426, 3923.076904, 4614.871582, 450.000000, 8141.000000, 8354.000000, 0.000000, 0.000000, 0.000000, 1.000000, 906.899998, 1557655312.812090, 4.000000, 2.000000, 1.000000, 4.000000, 4.000000
86.000000, 0.000000, 4247.179199, 4284.615234, 3992.820313, 3923.589600, 4625.127930, 450.000000, 8144.000000, 8349.000000, 0.000000, 0.000000, 0.000000, 1.000000, 914.699997, 1557655312.819890, 4.000000, 2.000000, 1.000000, 4.000000, 4.000000
87.000000, 0.000000, 4256.922852, 4310.256348, 4048.205078, 3941.538330, 4653.333008, 16149.000000, 8139.000000, 8351.000000, 0.000000, 0.000000, 0.000000, 1.000000, 922.399998, 1557655312.827590, 4.000000, 2.000000, 1.000000, 4.000000, 4.000000
88.000000, 0.000000, 4263.589844, 4316.922852, 4004.102539, 3952.820313, 4669.743652, 450.000000, 8129.000000, 8361.000000, 0.000000, 0.000000, 0.000000, 1.000000, 930.199997, 1557655312.835390, 4.000000, 2.000000, 1.000000, 4.000000, 4.000000
89.000000, 0.000000, 4275.897461, 4298.974121, 4027.179443, 3960.000000, 4666.153809, 450.000000, 8129.000000, 8353.000000, 0.000000, 0.000000, 0.000000, 1.000000, 938.199997, 1557655312.843390, 4.000000, 2.000000, 1.000000, 4.000000, 4.000000
90.000000, 0.000000, 4283.589844, 4291.281738, 4048.717773, 3957.435791, 4669.230469, 450.000000, 8132.000000, 8354.000000, 0.000000, 0.000000, 0.000000, 1.000000, 946.199997, 1557655312.851390, 4.000000, 2.000000, 1.000000, 4.000000, 4.000000
91.000000, 0.000000, 4278.974121, 4290.256348, 3984.102539, 3939.487061, 4678.974121, 16149.000000, 8130.000000, 8364.000000, 0.000000, 0.000000, 0.000000, 1.000000, 954.199997, 1557655312.859390, 4.000000, 2.000000, 1.000000, 4.000000, 4.000000
92.000000, 0.000000, 4284.615234, 4283.076660, 4044.102539, 3936.410156, 4684.102539, 450.000000, 8125.000000, 8358.000000, 0.000000, 0.000000, 0.000000, 1.000000, 962.099998, 1557655312.867290, 4.000000, 2.000000, 1.000000, 4.000000, 4.000000
93.000000, 0.000000, 4282.563965, 4260.512695, 4003.589600, 3932.820313, 4676.922852, 450.000000, 8131.000000, 8354.000000, 0.000000, 0.000000, 0.000000, 1.000000, 970.099998, 1557655312.875290, 4.000000, 2.000000, 1.000000, 4.000000, 4.000000
94.000000, 0.000000, 4263.076660, 4242.563965, 4002.563965, 3931.281982, 4666.666504, 450.000000, 8133.000000, 8353.000000, 0.000000, 0.000000, 0.000000, 1.000000, 978.099998, 1557655312.883290, 4.000000, 2.000000, 1.000000, 4.000000, 4.000000
95.000000, 0.000000, 4260.512695, 4247.692383, 4035.897217, 3936.410156, 4661.025391, 16149.000000, 8136.000000, 8363.000000, 0.000000, 0.000000, 0.000000, 1.000000, 985.899994, 1557655312.891090, 4.000000, 2.000000, 1.000000, 4.000000, 4.000000
96.000000, 0.000000, 4256.922852, 4251.794922, 3977.435791, 3923.589600, 4647.692383, 450.000000, 8136.000000, 8358.000000, 0.000000, 0.000000, 0.000000, 1.000000, 993.699997, 1557655312.898890, 4.000000, 2.000000, 1.000000, 4.000000, 4.000000
97.000000, 0.000000, 4240.000000, 4240.512695, 4037.948730, 3916.410156, 4627.692383, 450.000000, 8137.000000, 8358.000000, 0.000000, 0.000000, 0.000000, 2.000000, 1.399994, 1557655312.906590, 4.000000, 2.000000, 1.000000, 4.000000, 4.000000
98.000000, 0.000000, 4235.897461, 4234.358887, 4011.794678, 3917.948730, 4610.256348, 450.000000, 8144.000000, 8352.000000, 0.000000, 0.000000, 0.000000, 2.000000, 9.199997, 1557655312.914390, 4.000000, 2.000000, 1.000000, 4.000000, 4.000000
99.000000, 0.000000, 4244.102539, 4246.153809, 4004.102539, 3916.410156, 4612.820313, 16149.000000, 8145.000000, 8347.000000, 0.000000, 0.000000, 0.000000, 2.000000, 17.199997, 1557655312.922390, 4.000000, 2.000000, 1.000000, 4.000000, 4.000000
100.000000, 0.000000, 4251.281738, 4256.410156, 4040.000000, 3909.230713, 4625.127930, 450.000000, 8155.000000, 8342.000000, 0.000000, 0.000000, 0.000000, 2.000000, 25.099991, 1557655312.930290, 4.000000, 2.000000, 1.000000, 4.000000, 4.000000
101.000000, 0.000000, 4245.127930, 4255.897461, 3973.845947, 3898.974365, 4622.051270, 450.000000, 8159.000000, 8350.000000, 0.000000, 0.000000, 0.000000, 2.000000, 33.099991, 1557655312.938290, 4.000000, 2.000000, 1.000000, 4.000000, 4.000000
102.000000, 0.000000, 4236.410156, 4251.281738, 4032.820313, 3913.333252, 4624.615234, 450.000000, 8158.000000, 8342.000000, 0.000000, 0.000000, 0.000000, 2.000000, 41.000000, 1557655312.946190, 4.000000, 2.000000, 1.000000, 4.000000, 4.000000
103.000000, 0.000000, 4242.563965, 4242.051270, 4016.923096, 3925.640869, 4632.307617, 16149.000000, 8153.000000, 8334.000000, 0.000000, 0.000000, 0.000000, 2.000000, 48.800003, 1557655312.953990, 4.000000, 2.000000, 1.000000, 4.000000, 4.000000
104.000000, 0.000000, 4252.820313, 4244.102539, 3997.948730, 3920.000000, 4627.179199, 450.000000, 8152.000000, 8341.000000, 0.000000, 0.000000, 0.000000, 2.000000, 56.599991, 1557655312.961790, 4.000000, 2.000000, 1.000000, 4.000000, 4.000000
105.000000, 0.000000, 4268.717773, 4262.051270, 4056.923096, 3934.871582, 4642.051270, 450.000000, 8152.000000, 8345.000000, 0.000000, 0.000000, 0.000000, 2.000000, 64.399994, 1557655312.969590, 4.000000, 2.000000, 1.000000, 4.000000, 4.000000
106.000000, 0.000000, 4290.256348, 4274.358887, 3997.948730, 3963.589600, 4685.127930, 450.000000, 8153.000000, 8333.000000, 0.000000, 0.000000, 0.000000, 2.000000, 72.199997, 1557655312.977390, 4.000000, 2.000000, 1.000000, 4.000000, 4.000000
107.000000, 0.000000, 4295.384277, 4267.179199, 4035.384521, 3969.743408, 4701.025391, 16149.000000, 8149.000000, 8333.000000, 0.000000, 0.000000, 0.000000, 2.000000, 80.099991, 1557655312.985290, 4.000000, 2.000000, 1.000000, 4.000000, 4.000000
108.000000, 0.000000, 4285.127930, 4251.281738, 4022.563965, 3946.666504, 4683.076660, 450.000000, 8149.000000, 8342.000000, 0.000000, 0.000000, 0.000000, 2.000000, 88.099991, 1557655312.993290, 4.000000, 2.000000, 1.000000, 4.000000, 4.000000
109.000000, 0.000000, 4277.948730, 4238.974121, 3991.281982, 3942.563965, 4662.563965, 450.000000, 8151.000000, 8337.000000, 0.000000, 0.000000, 0.000000, 2.000000, 96.099991, 1557655313.001290, 4.000000, 2.000000, 1.000000, 4.000000, 4.000000
110.000000, 0.000000, 4264.102539, 4241.025391, 4046.666504, 3962.563965, 4646.153809, 450.000000, 8145.000000, 8340.000000, 0.000000, 0.000000, 0.000000, 2.000000, 104.099991, 1557655313.009290, 4.000000, 2.000000, 1.000000, 4.000000, 4.000000
111.000000, 0.000000, 4239.487305, 4245.641113, 3986.666504, 3952.307617, 4631.794922, 16149.000000, 8144.000000, 8338.000000, 0.000000, 0.000000, 0.000000, 2.000000, 111.899994, 1557655313.017090, 4.000000, 2.000000, 1.000000, 4.000000, 4.000000
112.000000, 0.000000, 4236.922852, 4235.897461, 4022.051270, 3939.487061, 4627.179199, 450.000000, 8146.000000, 8330.000000, 0.000000, 0.000000, 0.000000, 2.000000, 119.599991, 1557655313.024790, 4.000000, 2.000000, 1.000000, 4.000000, 4.000000
113.000000, 0.000000, 4254.358887, 4235.897461, 4021.538330, 3946.666504, 4639.487305, 450.000000, 8151.000000, 8332.000000, 0.000000, 0.000000, 0.000000, 2.000000, 127.400009, 1557655313.032590, 4.000000, 2.000000, 1.000000, 4.000000, 4.000000
114.000000, 0.000000, 4252.820313, 4249.743652, 3974.358887, 3941.538330, 4643.076660, 450.000000, 8148.000000, 8339.000000, 0.000000, 0.000000, 0.000000, 2.000000, 135.199997, 1557655313.040390, 4.000000, 2.000000, 1.000000, 4.000000, 4.000000
115.000000, 0.000000, 4237.436035, 4252.307617, 4035.897217, 3935.897461, 4628.205078, 16149.000000, 8140.000000, 8344.000000, 0.000000, 0.000000, 0.000000, 2.000000, 143.199997, 1557655313.048390, 4.000000, 2.000000, 1.000000, 4.000000, 4.000000
116.000000, 0.000000, 4239.487305, 4252.307617, 3981.025635, 3946.153809, 4625.641113, 450.000000, 8143.000000, 8341.000000, 0.000000, 0.000000, 0.000000, 2.000000, 151.199997, 1557655313.056390, 4.000000, 2.000000, 1.000000, 4.000000, 4.000000
117.000000, 0.000000, 4251.281738, 4261.538574, 4003.076904, 3956.923096, 4638.461426, 450.000000, 8150.000000, 8336.000000, 0.000000, 0.000000, 0.000000, 2.000000, 159.199997, 1557655313.064390, 4.000000, 2.000000, 1.000000, 4.000000, 4.000000
118.000000, 0.000000, 4251.794922, 4254.871582, 4021.538330, 3953.333252, 4629.230469, 450.000000, 8146.000000, 8354.000000, 0.000000, 0.000000, 0.000000, 2.000000, 166.999985, 1557655313.072190, 4.000000, 2.000000, 1.000000, 4.000000, 4.000000
119.000000, 0.000000, 4249.743652, 4238.974121, 3983.589600, 3955.384521, 4614.871582, 16149.000000, 8146.000000, 8342.000000, 0.000000, 0.000000, 0.000000, 2.000000, 174.800003, 1557655313.079990, 4.000000, 2.000000, 1.000000, 4.000000, 4.000000
120.000000, 0.000000, 4263.076660, 4245.641113, 4057.435791, 3972.820313, 4637.435547, 450.000000, 8149.000000, 8345.000000, 0.000000, 0.000000, 0.000000, 2.000000, 182.599991, 1557655313.087790, 4.000000, 2.000000, 1.000000, 4.000000, 4.000000
121.000000, 0.000000, 4262.563965, 4250.769043, 4013.333252, 3974.871582, 4654.358887, 450.000000, 8147.000000, 8356.000000, 0.000000, 0.000000, 0.000000, 2.000000, 190.400009, 1557655313.095590, 4.000000, 2.000000, 1.000000, 4.000000, 4.000000
122.000000, 0.000000, 4246.153809, 4238.974121, 4025.640869, 3976.923096, 4641.538574, 450.000000, 8157.000000, 8351.000000, 0.000000, 0.000000, 0.000000, 2.000000, 198.300003, 1557655313.103490, 4.000000, 2.000000, 1.000000, 4.000000, 4.000000
123.000000, 0.000000, 4241.025391, 4241.025391, 4050.256348, 3971.281982, 4625.641113, 16149.000000, 8159.000000, 8348.000000, 0.000000, 0.000000, 0.000000, 2.000000, 206.099991, 1557655313.111290, 4.000000, 2.000000, 1.000000, 4.000000, 4.000000
124.000000, 0.000000, 4235.897461, 4252.307617, 3989.230713, 3948.205078, 4617.948730, 450.000000, 8154.000000, 8349.000000, 0.000000, 0.000000, 0.000000, 2.000000, 214.099991, 1557655313.119290, 4.000000, 2.000000, 1.000000, 4.000000, 4.000000
125.000000, 0.000000, 4223.589844, 4253.846191, 4040.000000, 3944.102539, 4610.769043, 450.000000, 8154.000000, 8350.000000, 0.000000, 0.000000, 0.000000, 2.000000, 222.099991, 1557655313.127290, 4.000000, 2.000000, 1.000000, 4.000000, 4.000000
126.000000, 0.000000, 4211.794922, 4249.743652, 3990.256348, 3929.230713, 4591.794922, 450.000000, 8159.000000, 8350.000000, 0.000000, 0.000000, 0.000000, 2.000000, 230.099991, 1557655313.135290, 4.000000, 2.000000, 1.000000, 4.000000, 4.000000
127.000000, 0.000000, 4212.820313, 4251.794922, 3985.640869, 3915.897461, 4580.512695, 16149.000000, 8155.000000, 8362.000000, 0.000000, 0.000000, 0.000000, 2.000000, 237.900009, 1557655313.143090, 4.000000, 2.000000, 1.000000, 4.000000, 4.000000
128.000000, 0.000000, 4218.461426, 4255.897461, 4018.974365, 3929.743408, 4583.589844, 500.000000, 8158.000000, 8355.000000, 0.000000, 0.000000, 0.000000, 2.000000, 245.599991, 1557655313.150790, 4.000000, 2.000000, 1.000000, 4.000000, 4.000000
0.000000, 0.000000, 4210.769043, 4245.127930, 3967.179443, 3932.820313, 4574.358887, 500.000000, 8158.000000, 8351.000000, 0.000000, 0.000000, 0.000000, 2.000000, 253.400009, 1557655313.158590, 4.000000, 2.000000, 1.000000, 4.000000, 4.000000
1.000000, 0.000000, 4211.281738, 4233.846191, 4036.410156, 3934.358887, 4562.563965, 500.000000, 8155.000000, 8349.000000, 0.000000, 0.000000, 0.000000, 2.000000, 261.199997, 1557655313.166390, 4.000000, 2.000000, 1.000000, 4.000000, 4.000000
2.000000, 0.000000, 4218.461426, 4244.615234, 4010.256348, 3936.923096, 4565.641113, 16195.000000, 8151.000000, 8360.000000, 0.000000, 0.000000, 0.000000, 2.000000, 269.199997, 1557655313.174390, 4.000000, 2.000000, 1.000000, 4.000000, 4.000000
3.000000, 0.000000, 4216.410156, 4255.384277, 3996.923096, 3939.487061, 4578.974121, 500.000000, 8156.000000, 8355.000000, 0.000000, 0.000000, 0.000000, 2.000000, 277.199997, 1557655313.182390, 4.000000, 2.000000, 1.000000, 4.000000, 4.000000
4.000000, 0.000000, 4225.127930, 4245.641113, 4038.974365, 3945.640869, 4598.974121, 189.000000, 8155.000000, 8346.000000, 0.000000, 0.000000, 0.000000, 2.000000, 285.099991, 1557655313.190290, 4.000000, 2.000000, 1.000000, 4.000000, 4.000000
5.000000, 0.000000, 4242.051270, 4237.948730, 3985.640869, 3942.563965, 4609.743652, 500.000000, 8151.000000, 8354.000000, 0.000000, 0.000000, 0.000000, 2.000000, 293.099991, 1557655313.198290, 4.000000, 2.000000, 1.000000, 4.000000, 4.000000
6.000000, 0.000000, 4231.281738, 4240.512695, 4033.845947, 3930.256348, 4597.948730, 79.000000, 8154.000000, 8352.000000, 0.000000, 0.000000, 0.000000, 2.000000, 301.099991, 1557655313.206290, 4.000000, 2.000000, 1.000000, 4.000000, 4.000000
7.000000, 0.000000, 4209.230469, 4241.538574, 3990.769043, 3908.717773, 4574.358887, 500.000000, 8153.000000, 8346.000000, 0.000000, 0.000000, 0.000000, 2.000000, 308.900009, 1557655313.214090, 4.000000, 2.000000, 1.000000, 4.000000, 4.000000
8.000000, 0.000000, 4209.230469, 4247.692383, 3959.487061, 3893.845947, 4561.538574, 500.000000, 8151.000000, 8349.000000, 0.000000, 0.000000, 0.000000, 2.000000, 316.699997, 1557655313.221890, 4.000000, 2.000000, 1.000000, 4.000000, 4.000000
9.000000, 0.000000, 4212.307617, 4255.897461, 4020.512695, 3895.897461, 4554.358887, 16100.000000, 8159.000000, 8348.000000, 0.000000, 0.000000, 0.000000, 2.000000, 324.400009, 1557655313.229590, 4.000000, 2.000000, 1.000000, 4.000000, 4.000000
10.000000, 0.000000, 4206.153809, 4261.025391, 3959.487061, 3901.538330, 4544.615234, 500.000000, 8154.000000, 8345.000000, 0.000000, 0.000000, 0.000000, 2.000000, 332.199997, 1557655313.237390, 4.000000, 2.000000, 1.000000, 4.000000, 4.000000
11.000000, 0.000000, 4201.025391, 4261.538574, 4000.000000, 3910.769043, 4544.615234, 16159.000000, 8153.000000, 8350.000000, 0.000000, 0.000000, 0.000000, 2.000000, 340.099991, 1557655313.245290, 4.000000, 2.000000, 1.000000, 4.000000, 4.000000
12.000000, 0.000000, 4194.358887, 4251.794922, 4006.153809, 3909.743408, 4547.692383, 500.000000, 8155.000000, 8357.000000, 0.000000, 0.000000, 0.000000, 2.000000, 348.099991, 1557655313.253290, 4.000000, 2.000000, 1.000000, 4.000000, 4.000000
13.000000, 0.000000, 4196.922852, 4249.230469, 3987.692139, 3908.205078, 4553.333008, 500.000000, 8149.000000, 8348.000000, 0.000000, 0.000000, 0.000000, 2.000000, 356.099991, 1557655313.261290, 4.000000, 2.000000, 1.000000, 4.000000, 4.000000
14.000000, 0.000000, 4206.666504, 4264.102539, 4044.615234, 3922.051270, 4556.922852, 450.000000, 8153.000000, 8344.000000, 0.000000, 0.000000, 0.000000, 2.000000, 363.999985, 1557655313.269190, 4.000000, 2.000000, 1.000000, 4.000000, 4.000000
15.000000, 0.000000, 4207.179199, 4269.743652, 3986.666504, 3915.384521, 4544.615234, 16159.000000, 8151.000000, 8348.000000, 0.000000, 0.000000, 0.000000, 2.000000, 371.799973, 1557655313.276990, 4.000000, 2.000000, 1.000000, 4.000000, 4.000000
16.000000, 0.000000, 4212.307617, 4262.563965, 4024.102539, 3907.179443, 4542.051270, 0.000000, 8152.000000, 8353.000000, 0.000000, 0.000000, 0.000000, 2.000000, 379.600021, 1557655313.284790, 4.000000, 2.000000, 1.000000, 4.000000, 4.000000
17.000000, 0.000000, 4220.000000, 4257.948730, 4017.948730, 3900.512695, 4552.820313, 0.000000, 8154.000000, 8344.000000, 0.000000, 0.000000, 0.000000, 2.000000, 387.400009, 1557655313.292590, 4.000000, 2.000000, 1.000000, 4.000000, 4.000000
18.000000, 0.000000, 4210.256348, 4257.948730, 3968.205078, 3881.538330, 4545.641113, 0.000000, 8152.000000, 8342.000000, 0.000000, 0.000000, 0.000000, 2.000000, 395.199997, 1557655313.300390, 4.000000, 2.000000, 1.000000, 4.000000, 4.000000
19.000000, 0.000000, 4203.076660, 4266.666504, 4033.333252, 3890.256348, 4544.102539, 0.000000, 8151.000000, 8352.000000, 0.000000, 0.000000, 0.000000, 2.000000, 403.100021, 1557655313.308290, 4.000000, 2.000000, 1.000000, 4.000000, 4.000000
20.000000, 0.000000, 4207.692383, 4272.820313, 3981.538330, 3914.358887, 4551.281738, 0.000000, 8150.000000, 8343.000000, 0.000000, 0.000000, 0.000000, 2.000000, 411.100021, 1557655313.316290, 4.000000, 2.000000, 1.000000, 4.000000, 4.000000
21.000000, 0.000000, 4214.871582, 4275.897461, 4007.179443, 3922.563965, 4536.922852, 0.000000, 8157.000000, 8346.000000, 0.000000, 0.000000, 0.000000, 2.000000, 419.100021, 1557655313.324290, 4.000000, 2.000000, 1.000000, 4.000000, 4.000000
22.000000, 0.000000, 4219.487305, 4278.461426, 4026.666504, 3916.923096, 4514.358887, 0.000000, 8152.000000, 8351.000000, 0.000000, 0.000000, 0.000000, 2.000000, 427.100021, 1557655313.332290, 4.000000, 2.000000, 1.000000, 4.000000, 4.000000
23.000000, 0.000000, 4218.974121, 4266.666504, 3978.974365, 3913.845947, 4511.794922, 0.000000, 8158.000000, 8347.000000, 0.000000, 0.000000, 0.000000, 2.000000, 435.100021, 1557655313.340290, 4.000000, 2.000000, 1.000000, 4.000000, 4.000000
24.000000, 0.000000, 4220.512695, 4263.076660, 4042.051270, 3921.025635, 4533.333008, 0.000000, 8156.000000, 8355.000000, 0.000000, 0.000000, 0.000000, 2.000000, 442.799973, 1557655313.347990, 4.000000, 2.000000, 1.000000, 4.000000, 4.000000
25.000000, 0.000000, 4226.153809, 4269.230469, 3984.102539, 3911.794678, 4552.820313, 0.000000, 8152.000000, 8349.000000, 0.000000, 0.000000, 0.000000, 2.000000, 450.600021, 1557655313.355790, 4.000000, 2.000000, 1.000000, 4.000000, 4.000000
26.000000, 0.000000, 4226.666504, 4261.025391, 3987.179443, 3903.589600, 4536.922852, 0.000000, 8154.000000, 8347.000000, 0.000000, 0.000000, 0.000000, 2.000000, 458.400009, 1557655313.363590, 4.000000, 2.000000, 1.000000, 4.000000, 4.000000
27.000000, 0.000000, 4225.641113, 4256.922852, 4031.794678, 3921.025635, 4513.846191, 0.000000, 8158.000000, 8341.000000, 0.000000, 0.000000, 0.000000, 2.000000, 466.199997, 1557655313.371390, 4.000000, 2.000000, 1.000000, 4.000000, 4.000000
28.000000, 0.000000, 4235.384277, 4271.794922, 3992.820313, 3940.512695, 4531.281738, 0.000000, 8153.000000, 8354.000000, 0.000000, 0.000000, 0.000000, 2.000000, 474.199997, 1557655313.379390, 4.000000, 2.000000, 1.000000, 4.000000, 4.000000
29.000000, 0.000000, 4256.922852, 4285.641113, 4043.589600, 3943.076904, 4557.948730, 0.000000, 8156.000000, 8353.000000, 0.000000, 0.000000, 0.000000, 2.000000, 481.999985, 1557655313.387190, 4.000000, 2.000000, 1.000000, 4.000000, 4.000000
30.000000, 0.000000, 4267.692383, 4280.000000, 3998.974365, 3930.769043, 4551.794922, 0.000000, 8158.000000, 8340.000000, 0.000000, 0.000000, 0.000000, 2.000000, 489.999985, 1557655313.395190, 4.000000, 2.000000, 1.000000, 4.000000, 4.000000
31.000000, 0.000000, 4261.538574, 4269.230469, 4004.102539, 3940.000000, 4536.922852, 0.000000, 8160.000000, 8348.000000, 0.000000, 0.000000, 0.000000, 2.000000, 497.999985, 1557655313.403190, 4.000000, 2.000000, 1.000000, 4.000000, 4.000000
32.000000, 0.000000, 4256.410156, 4275.897461, 4033.845947, 3951.281982, 4535.384277, 0.000000, 8158.000000, 8359.000000, 0.000000, 0.000000, 0.000000, 2.000000, 505.799973, 1557655313.410990, 4.000000, 2.000000, 1.000000, 4.000000, 4.000000
33.000000, 0.000000, 4243.589844, 4283.589844, 3970.769043, 3935.897461, 4531.281738, 0.000000, 8158.000000, 8357.000000, 0.000000, 0.000000, 0.000000, 2.000000, 513.600021, 1557655313.418790, 4.000000, 2.000000, 1.000000, 4.000000, 4.000000
34.000000, 0.000000, 4231.794922, 4273.333008, 4037.435791, 3936.923096, 4518.461426, 0.000000, 8161.000000, 8351.000000, 0.000000, 0.000000, 0.000000, 2.000000, 521.299973, 1557655313.426490, 4.000000, 2.000000, 1.000000, 4.000000, 4.000000
35.000000, 0.000000, 4243.589844, 4272.820313, 4022.051270, 3951.281982, 4512.820313, 0.000000, 8158.000000, 8348.000000, 0.000000, 0.000000, 0.000000, 2.000000, 529.100021, 1557655313.434290, 4.000000, 2.000000, 1.000000, 4.000000, 4.000000
36.000000, 0.000000, 4258.461426, 4287.692383, 4020.000000, 3954.871582, 4522.563965, 0.000000, 8159.000000, 8339.000000, 0.000000, 0.000000, 0.000000, 2.000000, 537.100021, 1557655313.442290, 4.000000, 2.000000, 1.000000, 4.000000, 4.000000
37.000000, 0.000000, 4256.922852, 4284.102539, 4052.307617, 3943.076904, 4533.846191, 0.000000, 8163.000000, 8343.000000, 0.000000, 0.000000, 0.000000, 2.000000, 545.100021, 1557655313.450290, 4.000000, 2.000000, 1.000000, 4.000000, 4.000000
38.000000, 0.000000, 4262.563965, 4282.563965, 3971.794678, 3935.384521, 4541.538574, 0.000000, 8158.000000, 8343.000000, 0.000000, 0.000000, 0.000000, 2.000000, 553.100021, 1557655313.458290, 4.000000, 2.000000, 1.000000, 4.000000, 4.000000
39.000000, 0.000000, 4275.897461, 4297.948730, 4021.538330, 3949.743408, 4545.127930, 0.000000, 8159.000000, 8340.000000, 0.000000, 0.000000, 0.000000, 2.000000, 561.100021, 1557655313.466290, 4.000000, 2.000000, 1.000000, 4.000000, 4.000000
40.000000, 0.000000, 4266.153809, 4291.281738, 4004.615234, 3946.666504, 4528.717773, 0.000000, 8160.000000, 8342.000000, 0.000000, 0.000000, 0.000000, 2.000000, 568.799973, 1557655313.473990, 4.000000, 2.000000, 1.000000, 4.000000, 4.000000
41.000000, 0.000000, 4250.256348, 4270.769043, 3975.897217, 3933.845947, 4508.205078, 0.000000, 8152.000000, 8340.000000, 0.000000, 0.000000, 0.000000, 2.000000, 576.600021, 1557655313.481790, 4.000000, 2.000000, 1.000000, 4.000000, 4.000000
42.000000, 0.000000, 4246.153809, 4276.410156, 4027.179443, 3937.435791, 4498.974121, 0.000000, 8157.000000, 8353.000000, 0.000000, 0.000000, 0.000000, 2.000000, 584.400009, 1557655313.489590, 4.000000, 2.000000, 1.000000, 4.000000, 4.000000
43.000000, 0.000000, 4236.410156, 4287.179199, 3966.153809, 3932.307617, 4480.000000, 0.000000, 8159.000000, 8340.000000, 0.000000, 0.000000, 0.000000, 2.000000, 592.199997, 1557655313.497390, 4.000000, 2.000000, 1.000000, 4.000000, 4.000000
44.000000, 0.000000, 4237.948730, 4284.615234, 4012.820313, 3934.358887, 4481.025391, 0.000000, 8150.000000, 8344.000000, 0.000000, 0.000000, 0.000000, 2.000000, 600.199997, 1557655313.505390, 4.000000, 2.000000, 1.000000, 4.000000, 4.000000
45.000000, 0.000000, 4276.410156, 4283.589844, 4016.923096, 3940.000000, 4525.127930, 0.000000, 8148.000000, 8354.000000, 0.000000, 0.000000, 0.000000, 2.000000, 608.100021, 1557655313.513290, 4.000000, 2.000000, 1.000000, 4.000000, 4.000000
46.000000, 0.000000, 4320.512695, 4285.641113, 3987.692139, 3941.538330, 4553.333008, 0.000000, 8153.000000, 8365.000000, 0.000000, 0.000000, 0.000000, 2.000000, 616.100021, 1557655313.521290, 4.000000, 2.000000, 1.000000, 4.000000, 4.000000
47.000000, 0.000000, 4331.794922, 4284.102539, 4045.640869, 3956.410156, 4551.794922, 0.000000, 8154.000000, 8358.000000, 0.000000, 0.000000, 0.000000, 2.000000, 624.100021, 1557655313.529290, 4.000000, 2.000000, 1.000000, 4.000000, 4.000000
48.000000, 0.000000, 4329.743652, 4283.076660, 3992.820313, 3962.563965, 4554.871582, 0.000000, 8149.000000, 8359.000000, 0.000000, 0.000000, 0.000000, 2.000000, 632.100021, 1557655313.537290, 4.000000, 2.000000, 1.000000, 4.000000, 4.000000
49.000000, 0.000000, 4342.051270, 4281.025391, 4026.153809, 3957.948730, 4559.487305, 0.000000, 8149.000000, 8356.000000, 0.000000, 0.000000, 0.000000, 2.000000, 639.900009, 1557655313.545090, 4.000000, 2.000000, 1.000000, 4.000000, 4.000000
50.000000, 0.000000, 4341.538574, 4270.769043, 4021.025635, 3947.692139, 4549.230469, 0.000000, 8146.000000, 8360.000000, 0.000000, 0.000000, 0.000000, 2.000000, 647.600021, 1557655313.552790, 4.000000, 2.000000, 1.000000, 4.000000, 4.000000
51.000000, 0.000000, 4312.307617, 4255.897461, 3970.256348, 3933.845947, 4528.717773, 0.000000, 8151.000000, 8359.000000, 0.000000, 0.000000, 0.000000, 2.000000, 655.400009, 1557655313.560590, 4.000000, 2.000000, 1.000000, 4.000000, 4.000000
52.000000, 0.000000, 4303.076660, 4246.153809, 4031.281982, 3941.025635, 4518.974121, 0.000000, 8153.000000, 8355.000000, 0.000000, 0.000000, 0.000000, 2.000000, 663.199997, 1557655313.568390, 4.000000, 2.000000, 1.000000, 4.000000, 4.000000
53.000000, 0.000000, 4313.333008, 4241.025391, 3989.743408, 3954.358887, 4515.897461, 0.000000, 8150.000000, 8349.000000, 0.000000, 0.000000, 0.000000, 2.000000, 671.100021, 1557655313.576290, 4.000000, 2.000000, 1.000000, 4.000000, 4.000000
54.000000, 0.000000, 4311.281738, 4238.461426, 4023.076904, 3957.435791, 4511.794922, 0.000000, 8150.000000, 8355.000000, 0.000000, 0.000000, 0.000000, 2.000000, 679.100021, 1557655313.584290, 4.000000, 2.000000, 1.000000, 4.000000, 4.000000
55.000000, 0.000000, 4305.641113, 4242.051270, 4038.461426, 3949.230713, 4503.076660, 0.000000, 8148.000000, 8358.000000, 0.000000, 0.000000, 0.000000, 2.000000, 686.999985, 1557655313.592190, 4.000000, 2.000000, 1.000000, 4.000000, 4.000000
56.000000, 0.000000, 4298.974121, 4242.563965, 3983.076904, 3939.487061, 4501.025391, 0.000000, 8150.000000, 8345.000000, 0.000000, 0.000000, 0.000000, 2.000000, 694.999985, 1557655313.600190, 4.000000, 2.000000, 1.000000, 4.000000, 4.000000
57.000000, 0.000000, 4289.230469, 4229.743652, 4028.717773, 3934.358887, 4514.871582, 0.000000, 8148.000000, 8344.000000, 0.000000, 0.000000, 0.000000, 2.000000, 702.799973, 1557655313.607990, 4.000000, 2.000000, 1.000000, 4.000000, 4.000000
58.000000, 0.000000, 4275.897461, 4214.358887, 3966.153809, 3921.538330, 4508.717773, 0.000000, 8151.000000, 8354.000000, 0.000000, 0.000000, 0.000000, 2.000000, 710.600021, 1557655313.615790, 4.000000, 2.000000, 1.000000, 4.000000, 4.000000
59.000000, 0.000000, 4266.153809, 4218.461426, 3987.179443, 3927.692139, 4485.127930, 0.000000, 8149.000000, 8349.000000, 0.000000, 0.000000, 0.000000, 2.000000, 718.400009, 1557655313.623590, 4.000000, 2.000000, 1.000000, 4.000000, 4.000000
60.000000, 0.000000, 4260.512695, 4233.333008, 4029.743408, 3948.717773, 4478.974121, 0.000000, 8148.000000, 8338.000000, 0.000000, 0.000000, 0.000000, 2.000000, 726.100021, 1557655313.631290, 4.000000, 2.000000, 1.000000, 4.000000, 4.000000
61.000000, 0.000000, 4255.897461, 4229.230469, 3973.845947, 3941.538330, 4483.589844, 0.000000, 8149.000000, 8333.000000, 0.000000, 0.000000, 0.000000, 2.000000, 734.100021, 1557655313.639290, 4.000000, 2.000000, 1.000000, 4.000000, 4.000000
62.000000, 0.000000, 4270.769043, 4233.846191, 4031.794678, 3937.948730, 4490.256348, 0.000000, 8154.000000, 8338.000000, 0.000000, 0.000000, 0.000000, 2.000000, 742.100021, 1557655313.647290, 4.000000, 2.000000, 1.000000, 4.000000, 4.000000
63.000000, 0.000000, 4287.692383, 4260.000000, 3994.358887, 3951.281982, 4487.692383, 0.000000, 8157.000000, 8339.000000, 0.000000, 0.000000, 0.000000, 2.000000, 750.100021, 1557655313.655290, 4.000000, 2.000000, 1.000000, 4.000000, 4.000000
64.000000, 0.000000, 4276.410156, 4252.307617, 3994.358887, 3954.871582, 4469.743652, 500.000000, 8154.000000, 8339.000000, 0.000000, 0.000000, 0.000000, 2.000000, 758.100021, 1557655313.663290, 4.000000, 2.000000, 1.000000, 4.000000, 4.000000
65.000000, 0.000000, 4252.820313, 4225.641113, 4028.717773, 3936.410156, 4463.076660, 500.000000, 8152.000000, 8334.000000, 0.000000, 0.000000, 0.000000, 2.000000, 765.999985, 1557655313.671190, 4.000000, 2.000000, 1.000000, 4.000000, 4.000000
66.000000, 0.000000, 4235.897461, 4232.307617, 3963.589600, 3916.410156, 4466.153809, 16190.000000, 8155.000000, 8338.000000, 0.000000, 0.000000, 0.000000, 2.000000, 773.799973, 1557655313.678990, 4.000000, 2.000000, 1.000000, 4.000000, 4.000000
67.000000, 0.000000, 4235.897461, 4242.563965, 4021.538330, 3921.025635, 4456.922852, 500.000000, 8152.000000, 8342.000000, 0.000000, 0.000000, 0.000000, 2.000000, 781.600021, 1557655313.686790, 4.000000, 2.000000, 1.000000, 4.000000, 4.000000
68.000000, 0.000000, 4248.205078, 4231.281738, 4001.025635, 3924.615234, 4450.256348, 182.000000, 8152.000000, 8336.000000, 0.000000, 0.000000, 0.000000, 2.000000, 789.400009, 1557655313.694590, 4.000000, 2.000000, 1.000000, 4.000000, 4.000000
69.000000, 0.000000, 4252.820313, 4231.281738, 3993.333252, 3930.256348, 4463.076660, 500.000000, 8152.000000, 8327.000000, 0.000000, 0.000000, 0.000000, 2.000000, 797.199997, 1557655313.702390, 4.000000, 2.000000, 1.000000, 4.000000, 4.000000
70.000000, 0.000000, 4256.410156, 4243.589844, 4037.435791, 3943.076904, 4476.410156, 71.000000, 8148.000000, 8328.000000, 0.000000, 0.000000, 0.000000, 2.000000, 805.100021, 1557655313.710290, 4.000000, 2.000000, 1.000000, 4.000000, 4.000000
71.000000, 0.000000, 4268.717773, 4242.563965, 3974.871582, 3940.000000, 4474.358887, 500.000000, 8147.000000, 8342.000000, 0.000000, 0.000000, 0.000000, 2.000000, 813.100021, 1557655313.718290, 4.000000, 2.000000, 1.000000, 4.000000, 4.000000
72.000000, 0.000000, 4271.281738, 4234.358887, 4018.461426, 3938.974365, 4470.769043, 500.000000, 8140.000000, 8343.000000, 0.000000, 0.000000, 0.000000, 2.000000, 821.100021, 1557655313.726290, 4.000000, 2.000000, 1.000000, 4.000000, 4.000000
73.000000, 0.000000, 4252.820313, 4241.025391, 3992.307617, 3929.230713, 4466.666504, 16109.000000, 8141.000000, 8329.000000, 0.000000, 0.000000, 0.000000, 2.000000, 829.100021, 1557655313.734290, 4.000000, 2.000000, 1.000000, 4.000000, 4.000000
74.000000, 0.000000, 4234.871582, 4253.333008, 3969.743408, 3915.897461, 4446.666504, 500.000000, 8137.000000, 8337.000000, 0.000000, 0.000000, 0.000000, 2.000000, 836.900009, 1557655313.742090, 4.000000, 2.000000, 1.000000, 4.000000, 4.000000
75.000000, 0.000000, 4233.333008, 4254.358887, 4024.615234, 3916.923096, 4427.692383, 16157.000000, 8141.000000, 8344.000000, 0.000000, 0.000000, 0.000000, 2.000000, 844.600021, 1557655313.749790, 4.000000, 2.000000, 1.000000, 4.000000, 4.000000
76.000000, 0.000000, 4225.641113, 4249.743652, 3963.589600, 3918.461426, 4428.717773, 500.000000, 8138.000000, 8343.000000, 0.000000, 0.000000, 0.000000, 2.000000, 852.400009, 1557655313.757590, 4.000000, 2.000000, 1.000000, 4.000000, 4.000000
77.000000, 0.000000, 4227.692383, 4244.102539, 4016.923096, 3932.307617, 4450.769043, 500.000000, 8139.000000, 8348.000000, 0.000000, 0.000000, 0.000000, 2.000000, 860.199997, 1557655313.765390, 4.000000, 2.000000, 1.000000, 4.000000, 4.000000
78.000000, 0.000000, 4247.692383, 4243.589844, 4024.102539, 3944.615234, 4469.230469, 450.000000, 8138.000000, 8346.000000, 0.000000, 0.000000, 0.000000, 2.000000, 868.199997, 1557655313.773390, 4.000000, 2.000000, 1.000000, 4.000000, 4.000000
79.000000, 0.000000, 4189.230469, 4245.127930, 3984.102539, 3936.923096, 4461.538574, 16157.000000, 8143.000000, 8339.000000, 0.000000, 0.000000, 0.000000, 2.000000, 876.199997, 1557655313.781390, 4.000000, 2.000000, 1.000000, 4.000000, 4.000000
80.000000, 0.000000, 4054.871582, 4244.102539, 4039.487061, 3941.025635, 4446.666504, 450.000000, 8140.000000, 8345.000000, 0.000000, 0.000000, 0.000000, 2.000000, 883.999996, 1557655313.789190, 4.000000, 2.000000, 1.000000, 4.000000, 4.000000
81.000000, 0.000000, 3982.563965, 4240.000000, 3989.743408, 3950.769043, 4449.230469, 450.000000, 8134.000000, 8359.000000, 0.000000, 0.000000, 0.000000, 2.000000, 891.999996, 1557655313.797190, 4.000000, 2.000000, 1.000000, 4.000000, 4.000000
82.000000, 0.000000, 3995.897217, 4241.538574, 4016.923096, 3945.128174, 4453.333008, 450.000000, 8138.000000, 8345.000000, 0.000000, 0.000000, 0.000000, 2.000000, 899.799995, 1557655313.804990, 4.000000, 2.000000, 1.000000, 4.000000, 4.000000
83.000000, 0.000000, 4004.615234, 4247.179199, 4008.205078, 3930.769043, 4435.384277, 16157.000000, 8132.000000, 8346.000000, 0.000000, 0.000000, 0.000000, 2.000000, 907.599998, 1557655313.812790, 4.000000, 2.000000, 1.000000, 4.000000, 4.000000
84.000000, 0.000000, 3993.333252, 4246.153809, 3961.025635, 3920.512695, 4413.846191, 450.000000, 8133.000000, 8361.000000, 0.000000, 0.000000, 0.000000, 2.000000, 915.399998, 1557655313.820590, 4.000000, 2.000000, 1.000000, 4.000000, 4.000000
85.000000, 0.000000, 3997.948730, 4250.769043, 4022.563965, 3926.153809, 4421.025391, 450.000000, 8132.000000, 8361.000000, 0.000000, 0.000000, 0.000000, 2.000000, 923.199997, 1557655313.828390, 4.000000, 2.000000, 1.000000, 4.000000, 4.000000
86.000000, 0.000000, 4003.589600, 4252.307617, 3968.205078, 3930.256348, 4437.948730, 450.000000, 8135.000000, 8351.000000, 0.000000, 0.000000, 0.000000, 2.000000, 931.099998, 1557655313.836290, 4.000000, 2.000000, 1.000000, 4.000000, 4.000000
87.000000, 0.000000, 4010.769043, 4249.743652, 3998.461426, 3940.512695, 4438.461426, 16157.000000, 8137.000000, 8355.000000, 0.000000, 0.000000, 0.000000, 2.000000, 939.099998, 1557655313.844290, 4.000000, 2.000000, 1.000000, 4.000000, 4.000000
88.000000, 0.000000, 4023.589600, 4257.436035, 4026.666504, 3944.615234, 4426.666504, 450.000000, 8136.000000, 8363.000000, 0.000000, 0.000000, 0.000000, 2.000000, 947.099998, 1557655313.852290, 4.000000, 2.000000, 1.000000, 4.000000, 4.000000
89.000000, 0.000000, 4032.307617, 4258.461426, 3982.051270, 3935.897461, 4423.076660, 450.000000, 8134.000000, 8359.000000, 0.000000, 0.000000, 0.000000, 2.000000, 955.099998, 1557655313.860290, 4.000000, 2.000000, 1.000000, 4.000000, 4.000000
90.000000, 0.000000, 4040.512695, 4254.871582, 4032.820313, 3935.384521, 4432.307617, 450.000000, 8134.000000, 8355.000000, 0.000000, 0.000000, 0.000000, 2.000000, 963.099998, 1557655313.868290, 4.000000, 2.000000, 1.000000, 4.000000, 4.000000
91.000000, 0.000000, 4043.589600, 4255.384277, 3966.666504, 3923.076904, 4426.666504, 16157.000000, 8137.000000, 8366.000000, 0.000000, 0.000000, 0.000000, 2.000000, 970.799995, 1557655313.875990, 4.000000, 2.000000, 1.000000, 4.000000, 4.000000
92.000000, 0.000000, 4036.410156, 4254.871582, 3982.563965, 3912.307617, 4409.743652, 450.000000, 8137.000000, 8359.000000, 0.000000, 0.000000, 0.000000, 2.000000, 978.599998, 1557655313.883790, 4.000000, 2.000000, 1.000000, 4.000000, 4.000000
93.000000, 0.000000, 4013.845947, 4244.102539, 4023.076904, 3912.307617, 4396.922852, 450.000000, 8147.000000, 8356.000000, 0.000000, 0.000000, 0.000000, 2.000000, 986.399994, 1557655313.891590, 4.000000, 2.000000, 1.000000, 4.000000, 4.000000
94.000000, 0.000000, 4004.102539, 4228.717773, 3955.897461, 3907.179443, 4383.076660, 450.000000, 8144.000000, 8360.000000, 0.000000, 0.000000, 0.000000, 2.000000, 994.199997, 1557655313.899390, 4.000000, 2.000000, 1.000000, 4.000000, 4.000000
95.000000, 0.000000, 4029.743408, 4243.076660, 4007.692139, 3914.871582, 4381.538574, 16157.000000, 8146.000000, 8351.000000, 0.000000, 0.000000, 0.000000, 3.000000, 2.199997, 1557655313.907390, 4.000000, 2.000000, 1.000000, 4.000000, 4.000000
96.000000, 0.000000, 4052.307617, 4273.846191, 3992.307617, 3922.563965, 4397.948730, 450.000000, 8144.000000, 8345.000000, 0.000000, 0.000000, 0.000000, 3.000000, 10.000000, 1557655313.915190, 4.000000, 2.000000, 1.000000, 4.000000, 4.000000
97.000000, 0.000000, 4054.358887, 4272.307617, 4002.563965, 3927.179443, 4413.333008, 450.000000, 8140.000000, 8357.000000, 0.000000, 0.000000, 0.000000, 3.000000, 18.000000, 1557655313.923190, 4.000000, 2.000000, 1.000000, 4.000000, 4.000000
98.000000, 0.000000, 4056.410156, 4246.153809, 4017.435791, 3929.230713, 4409.743652, 450.000000, 8137.000000, 8354.000000, 0.000000, 0.000000, 0.000000, 3.000000, 26.000000, 1557655313.931190, 4.000000, 2.000000, 1.000000, 4.000000, 4.000000
99.000000, 0.000000, 4054.358887, 4245.127930, 3947.692139, 3917.948730, 4402.051270, 16157.000000, 8139.000000, 8340.000000, 0.000000, 0.000000, 0.000000, 3.000000, 33.800003, 1557655313.938990, 4.000000, 2.000000, 1.000000, 4.000000, 4.000000
100.000000, 0.000000, 4044.102539, 4255.897461, 4018.974365, 3916.923096, 4401.538574, 450.000000, 8137.000000, 8341.000000, 0.000000, 0.000000, 0.000000, 3.000000, 41.599991, 1557655313.946790, 4.000000, 2.000000, 1.000000, 4.000000, 4.000000
101.000000, 0.000000, 4037.948730, 4243.589844, 3995.897217, 3928.717773, 4388.717773, 450.000000, 8134.000000, 8348.000000, 0.000000, 0.000000, 0.000000, 3.000000, 49.300003, 1557655313.954490, 4.000000, 2.000000, 1.000000, 4.000000, 4.000000
102.000000, 0.000000, 4047.179443, 4238.461426, 3976.410156, 3943.076904, 4383.076660, 450.000000, 8132.000000, 8343.000000, 0.000000, 0.000000, 0.000000, 3.000000, 57.099991, 1557655313.962290, 4.000000, 2.000000, 1.000000, 4.000000, 4.000000
103.000000, 0.000000, 4069.230713, 4242.051270, 4016.410156, 3940.000000, 4403.076660, 16157.000000, 8134.000000, 8337.000000, 0.000000, 0.000000, 0.000000, 3.000000, 65.099991, 1557655313.970290, 4.000000, 2.000000, 1.000000, 4.000000, 4.000000
104.000000, 0.000000, 4082.051270, 4235.384277, 3951.794678, 3925.640869, 4410.256348, 450.000000, 8127.000000, 8340.000000, 0.000000, 0.000000, 0.000000, 3.000000, 73.099991, 1557655313.978290, 4.000000, 2.000000, 1.000000, 4.000000, 4.000000
105.000000, 0.000000, 4080.512695, 4245.641113, 4000.000000, 3938.974365, 4404.102539, 450.000000, 8128.000000, 8340.000000, 0.000000, 0.000000, 0.000000, 3.000000, 81.099991, 1557655313.986290, 4.000000, 2.000000, 1.000000, 4.000000, 4.000000
106.000000, 0.000000, 4082.051270, 4266.666504, 3976.923096, 3958.974365, 4411.281738, 450.000000, 8123.000000, 8338.000000, 0.000000, 0.000000, 0.000000, 3.000000, 89.000000, 1557655313.994190, 4.000000, 2.000000, 1.000000, 4.000000, 4.000000
107.000000, 0.000000, 4088.717773, 4261.538574, 3957.948730, 3968.205078, 4414.871582, 16157.000000, 8120.000000, 8346.000000, 0.000000, 0.000000, 0.000000, 3.000000, 96.800003, 1557655314.001990, 4.000000, 2.000000, 1.000000, 4.000000, 4.000000
108.000000, 0.000000, 4092.820313, 4255.384277, 4025.128174, 3971.281982, 4403.076660, 450.000000, 8122.000000, 8346.000000, 0.000000, 0.000000, 0.000000, 3.000000, 104.599991, 1557655314.009790, 4.000000, 2.000000, 1.000000, 4.000000, 4.000000
109.000000, 0.000000, 4086.666504, 4265.127930, 3961.025635, 3950.256348, 4387.179199, 450.000000, 8125.000000, 8338.000000, 0.000000, 0.000000, 0.000000, 3.000000, 112.399994, 1557655314.017590, 4.000000, 2.000000, 1.000000, 4.000000, 4.000000
110.000000, 0.000000, 4068.205078, 4255.897461, 3991.281982, 3932.820313, 4372.820313, 450.000000, 8124.000000, 8349.000000, 0.000000, 0.000000, 0.000000, 3.000000, 120.199997, 1557655314.025390, 4.000000, 2.000000, 1.000000, 4.000000, 4.000000
111.000000, 0.000000, 4059.487061, 4241.538574, 3990.769043, 3934.871582, 4367.179199, 16157.000000, 8118.000000, 8348.000000, 0.000000, 0.000000, 0.000000, 3.000000, 128.099991, 1557655314.033290, 4.000000, 2.000000, 1.000000, 4.000000, 4.000000
112.000000, 0.000000, 4069.230713, 4240.512695, 3965.640869, 3936.923096, 4374.358887, 450.000000, 8119.000000, 8336.000000, 0.000000, 0.000000, 0.000000, 3.000000, 136.099991, 1557655314.041290, 4.000000, 2.000000, 1.000000, 4.000000, 4.000000
113.000000, 0.000000, 4076.923096, 4242.051270, 4024.102539, 3939.487061, 4381.025391, 450.000000, 8126.000000, 8339.000000, 0.000000, 0.000000, 0.000000, 3.000000, 144.099991, 1557655314.049290, 4.000000, 2.000000, 1.000000, 4.000000, 4.000000
114.000000, 0.000000, 4076.410156, 4242.051270, 3966.153809, 3942.563965, 4378.461426, 450.000000, 8126.000000, 8355.000000, 0.000000, 0.000000, 0.000000, 3.000000, 152.099991, 1557655314.057290, 4.000000, 2.000000, 1.000000, 4.000000, 4.000000
115.000000, 0.000000, 4081.025635, 4251.794922, 3996.923096, 3947.179443, 4370.769043, 16157.000000, 8138.000000, 8350.000000, 0.000000, 0.000000, 0.000000, 3.000000, 159.900009, 1557655314.065090, 4.000000, 2.000000, 1.000000, 4.000000, 4.000000
116.000000, 0.000000, 4084.102539, 4263.589844, 4005.640869, 3938.974365, 4357.435547, 450.000000, 8137.000000, 8345.000000, 0.000000, 0.000000, 0.000000, 3.000000, 167.599991, 1557655314.072790, 4.000000, 2.000000, 1.000000, 4.000000, 4.000000
117.000000, 0.000000, 4071.281982, 4261.538574, 3964.102539, 3920.000000, 4337.436035, 450.000000, 8137.000000, 8351.000000, 0.000000, 0.000000, 0.000000, 3.000000, 175.400009, 1557655314.080590, 4.000000, 2.000000, 1.000000, 4.000000, 4.000000
118.000000, 0.000000, 4063.589600, 4252.307617, 4008.205078, 3924.102539, 4335.897461, 450.000000, 8142.000000, 8350.000000, 0.000000, 0.000000, 0.000000, 3.000000, 183.199997, 1557655314.088390, 4.000000, 2.000000, 1.000000, 4.000000, 4.000000
119.000000, 0.000000, 4066.666504, 4249.230469, 3948.717773, 3927.692139, 4351.794922, 16157.000000, 8141.000000, 8346.000000, 0.000000, 0.000000, 0.000000, 3.000000, 191.199997, 1557655314.096390, 4.000000, 2.000000, 1.000000, 4.000000, 4.000000
120.000000, 0.000000, 4072.820313, 4261.025391, 3994.358887, 3930.769043, 4350.256348, 450.000000, 8138.000000, 8351.000000, 0.000000, 0.000000, 0.000000, 3.000000, 199.199997, 1557655314.104390, 4.000000, 2.000000, 1.000000, 4.000000, 4.000000
121.000000, 0.000000, 4086.153809, 4269.743652, 4026.666504, 3947.179443, 4333.333008, 450.000000, 8137.000000, 8353.000000, 0.000000, 0.000000, 0.000000, 3.000000, 207.099991, 1557655314.112290, 4.000000, 2.000000, 1.000000, 4.000000, 4.000000
122.000000, 0.000000, 4092.307617, 4258.461426, 3959.487061, 3958.974365, 4338.461426, 450.000000, 8143.000000, 8340.000000, 0.000000, 0.000000, 0.000000, 3.000000, 215.099991, 1557655314.120290, 4.000000, 2.000000, 1.000000, 4.000000, 4.000000
123.000000, 0.000000, 4095.897217, 4253.846191, 4010.256348, 3954.871582, 4358.461426, 16157.000000, 8139.000000, 8342.000000, 0.000000, 0.000000, 0.000000, 3.000000, 223.099991, 1557655314.128290, 4.000000, 2.000000, 1.000000, 4.000000, 4.000000
124.000000, 0.000000, 4097.436035, 4260.000000, 3969.743408, 3930.769043, 4353.333008, 450.000000, 8141.000000, 8351.000000, 0.000000, 0.000000, 0.000000, 3.000000, 230.900009, 1557655314.136090, 4.000000, 2.000000, 1.000000, 4.000000, 4.000000
125.000000, 0.000000, 4093.845947, 4261.538574, 3981.538330, 3922.051270, 4342.051270, 450.000000, 8145.000000, 8355.000000, 0.000000, 0.000000, 0.000000, 3.000000, 238.699997, 1557655314.143890, 4.000000, 2.000000, 1.000000, 4.000000, 4.000000
126.000000, 0.000000, 4094.358887, 4261.025391, 4004.615234, 3931.281982, 4343.076660, 450.000000, 8143.000000, 8342.000000, 0.000000, 0.000000, 0.000000, 3.000000, 246.400009, 1557655314.151590, 4.000000, 2.000000, 1.000000, 4.000000, 4.000000
127.000000, 0.000000, 4094.871582, 4256.410156, 3941.538330, 3930.769043, 4325.641113, 16157.000000, 8142.000000, 8359.000000, 0.000000, 0.000000, 0.000000, 3.000000, 254.400009, 1557655314.159590, 4.000000, 2.000000, 1.000000, 4.000000, 4.000000
128.000000, 0.000000, 4093.333252, 4252.820313, 4004.102539, 3932.820313, 4312.307617, 500.000000, 8133.000000, 8358.000000, 0.000000, 0.000000, 0.000000, 3.000000, 262.199997, 1557655314.167390, 4.000000, 2.000000, 1.000000, 4.000000, 4.000000
0.000000, 0.000000, 4088.205078, 4264.102539, 3977.948730, 3926.666504, 4311.281738, 500.000000, 8139.000000, 8347.000000, 0.000000, 0.000000, 0.000000, 3.000000, 270.199997, 1557655314.175390, 4.000000, 2.000000, 1.000000, 4.000000, 4.000000
1.000000, 0.000000, 4088.717773, 4276.922852, 3978.974365, 3923.589600, 4310.256348, 500.000000, 8132.000000, 8354.000000, 0.000000, 0.000000, 0.000000, 3.000000, 278.199997, 1557655314.183390, 4.000000, 2.000000, 1.000000, 4.000000, 4.000000
2.000000, 0.000000, 4100.000000, 4272.820313, 4008.717773, 3930.256348, 4328.205078, 16197.000000, 8130.000000, 8358.000000, 0.000000, 0.000000, 0.000000, 3.000000, 286.099991, 1557655314.191290, 4.000000, 2.000000, 1.000000, 4.000000, 4.000000
3.000000, 0.000000, 4107.692383, 4264.615234, 3949.230713, 3928.717773, 4341.025391, 500.000000, 8138.000000, 8359.000000, 0.000000, 0.000000, 0.000000, 3.000000, 293.900009, 1557655314.199090, 4.000000, 2.000000, 1.000000, 4.000000, 4.000000
4.000000, 0.000000, 4109.230469, 4268.205078, 4018.974365, 3942.051270, 4334.358887, 185.000000, 8135.000000, 8361.000000, 0.000000, 0.000000, 0.000000, 3.000000, 301.699997, 1557655314.206890, 4.000000, 2.000000, 1.000000, 4.000000, 4.000000
5.000000, 0.000000, 4106.666504, 4261.025391, 3996.410156, 3956.410156, 4328.205078, 500.000000, 8131.000000, 8362.000000, 0.000000, 0.000000, 0.000000, 3.000000, 309.499985, 1557655314.214690, 4.000000, 2.000000, 1.000000, 4.000000, 4.000000
6.000000, 0.000000, 4112.820313, 4231.281738, 3977.435791, 3954.358887, 4320.512695, 67.000000, 8135.000000, 8352.000000, 0.000000, 0.000000, 0.000000, 3.000000, 317.300003, 1557655314.222490, 4.000000, 2.000000, 1.000000, 4.000000, 4.000000
7.000000, 0.000000, 4126.666504, 4222.051270, 4020.512695, 3947.692139, 4314.358887, 500.000000, 8132.000000, 8349.000000, 0.000000, 0.000000, 0.000000, 3.000000, 325.300003, 1557655314.230490, 4.000000, 2.000000, 1.000000, 4.000000, 4.000000
8.000000, 0.000000, 4110.769043, 4238.974121, 3962.563965, 3935.384521, 4311.281738, 500.000000, 8131.000000, 8356.000000, 0.000000, 0.000000, 0.000000, 3.000000, 333.099991, 1557655314.238290, 4.000000, 2.000000, 1.000000, 4.000000, 4.000000
9.000000, 0.000000, 4084.615234, 4237.436035, 4008.717773, 3930.256348, 4295.384277, 16103.000000, 8133.000000, 8359.000000, 0.000000, 0.000000, 0.000000, 3.000000, 341.099991, 1557655314.246290, 4.000000, 2.000000, 1.000000, 4.000000, 4.000000
10.000000, 0.000000, 4094.358887, 4217.948730, 3980.512695, 3926.666504, 4291.794922, 500.000000, 8133.000000, 8342.000000, 0.000000, 0.000000, 0.000000, 3.000000, 349.099991, 1557655314.254290, 4.000000, 2.000000, 1.000000, 4.000000, 4.000000
11.000000, 0.000000, 4111.794922, 4220.000000, 3961.025635, 3933.333252, 4316.922852, 16166.000000, 8134.000000, 8342.000000, 0.000000, 0.000000, 0.000000, 3.000000, 357.099991, 1557655314.262290, 4.000000, 2.000000, 1.000000, 4.000000, 4.000000
12.000000, 0.000000, 4111.794922, 4237.436035, 4031.794678, 3954.871582, 4332.307617, 500.000000, 8136.000000, 8357.000000, 0.000000, 0.000000, 0.000000, 3.000000, 364.900009, 1557655314.270090, 4.000000, 2.000000, 1.000000, 4.000000, 4.000000
13.000000, 0.000000, 4119.487305, 4234.871582, 3970.256348, 3957.435791, 4323.589844, 500.000000, 8138.000000, 8346.000000, 0.000000, 0.000000, 0.000000, 3.000000, 372.600021, 1557655314.277790, 4.000000, 2.000000, 1.000000, 4.000000, 4.000000
14.000000, 0.000000, 4134.358887, 4226.153809, 4005.128174, 3951.794678, 4321.538574, 450.000000, 8138.000000, 8341.000000, 0.000000, 0.000000, 0.000000, 3.000000, 380.400009, 1557655314.285590, 4.000000, 2.000000, 1.000000, 4.000000, 4.000000
15.000000, 0.000000, 4137.436035, 4227.692383, 4008.205078, 3946.666504, 4326.153809, 16166.000000, 8145.000000, 8344.000000, 0.000000, 0.000000, 0.000000, 3.000000, 388.199997, 1557655314.293390, 4.000000, 2.000000, 1.000000, 4.000000, 4.000000
16.000000, 0.000000, 4146.666504, 4234.358887, 3975.897217, 3946.153809, 4331.794922, 0.000000, 8147.000000, 8345.000000, 0.000000, 0.000000, 0.000000, 3.000000, 396.100021, 1557655314.301290, 4.000000, 2.000000, 1.000000, 4.000000, 4.000000
17.000000, 0.000000, 4155.897461, 4238.974121, 4026.666504, 3956.923096, 4337.436035, 0.000000, 8153.000000, 8344.000000, 0.000000, 0.000000, 0.000000, 3.000000, 404.100021, 1557655314.309290, 4.000000, 2.000000, 1.000000, 4.000000, 4.000000
18.000000, 0.000000, 4141.538574, 4228.205078, 3970.769043, 3957.435791, 4332.307617, 0.000000, 8154.000000, 8344.000000, 0.000000, 0.000000, 0.000000, 3.000000, 411.999985, 1557655314.317190, 4.000000, 2.000000, 1.000000, 4.000000, 4.000000
19.000000, 0.000000, 4132.820313, 4220.512695, 4007.692139, 3957.435791, 4329.743652, 0.000000, 8155.000000, 8338.000000, 0.000000, 0.000000, 0.000000, 3.000000, 419.999985, 1557655314.325190, 4.000000, 2.000000, 1.000000, 4.000000, 4.000000
20.000000, 0.000000, 4143.589844, 4234.871582, 4017.435791, 3955.897461, 4328.717773, 0.000000, 8153.000000, 8342.000000, 0.000000, 0.000000, 0.000000, 3.000000, 427.799973, 1557655314.332990, 4.000000, 2.000000, 1.000000, 4.000000, 4.000000
21.000000, 0.000000, 4145.127930, 4234.358887, 3974.871582, 3951.794678, 4317.948730, 0.000000, 8150.000000, 8350.000000, 0.000000, 0.000000, 0.000000, 3.000000, 435.600021, 1557655314.340790, 4.000000, 2.000000, 1.000000, 4.000000, 4.000000
22.000000, 0.000000, 4141.025391, 4217.948730, 4027.692139, 3962.563965, 4320.000000, 0.000000, 8151.000000, 8341.000000, 0.000000, 0.000000, 0.000000, 3.000000, 443.400009, 1557655314.348590, 4.000000, 2.000000, 1.000000, 4.000000, 4.000000
23.000000, 0.000000, 4139.487305, 4221.538574, 3969.230713, 3962.051270, 4326.153809, 0.000000, 8159.000000, 8335.000000, 0.000000, 0.000000, 0.000000, 3.000000, 451.100021, 1557655314.356290, 4.000000, 2.000000, 1.000000, 4.000000, 4.000000
24.000000, 0.000000, 4132.820313, 4221.538574, 3993.333252, 3951.794678, 4317.948730, 0.000000, 8152.000000, 8342.000000, 0.000000, 0.000000, 0.000000, 3.000000, 459.100021, 1557655314.364290, 4.000000, 2.000000, 1.000000, 4.000000, 4.000000
25.000000, 0.000000, 4132.820313, 4207.179199, 4012.307617, 3951.281982, 4312.307617, 0.000000, 8149.000000, 8351.000000, 0.000000, 0.000000, 0.000000, 3.000000, 467.100021, 1557655314.372290, 4.000000, 2.000000, 1.000000, 4.000000, 4.000000
26.000000, 0.000000, 4143.589844, 4211.794922, 3963.076904, 3960.512695, 4311.281738, 0.000000, 8156.000000, 8346.000000, 0.000000, 0.000000, 0.000000, 3.000000, 475.100021, 1557655314.380290, 4.000000, 2.000000, 1.000000, 4.000000, 4.000000
27.000000, 0.000000, 4157.436035, 4236.410156, 4032.307617, 3969.743408, 4309.743652, 0.000000, 8150.000000, 8339.000000, 0.000000, 0.000000, 0.000000, 3.000000, 483.100021, 1557655314.388290, 4.000000, 2.000000, 1.000000, 4.000000, 4.000000
28.000000, 0.000000, 4167.179199, 4252.307617, 3983.076904, 3962.563965, 4317.948730, 0.000000, 8150.000000, 8343.000000, 0.000000, 0.000000, 0.000000, 3.000000, 490.999985, 1557655314.396190, 4.000000, 2.000000, 1.000000, 4.000000, 4.000000
29.000000, 0.000000, 4160.512695, 4247.692383, 3980.512695, 3953.845947, 4330.256348, 0.000000, 8147.000000, 8345.000000, 0.000000, 0.000000, 0.000000, 3.000000, 498.799973, 1557655314.403990, 4.000000, 2.000000, 1.000000, 4.000000, 4.000000
30.000000, 0.000000, 4144.615234, 4233.846191, 4010.256348, 3944.102539, 4324.102539, 0.000000, 8147.000000, 8344.000000, 0.000000, 0.000000, 0.000000, 3.000000, 506.600021, 1557655314.411790, 4.000000, 2.000000, 1.000000, 4.000000, 4.000000
31.000000, 0.000000, 4137.436035, 4234.871582, 3962.563965, 3941.025635, 4312.820313, 0.000000, 8148.000000, 8344.000000, 0.000000, 0.000000, 0.000000, 3.000000, 514.400009, 1557655314.419590, 4.000000, 2.000000, 1.000000, 4.000000, 4.000000
32.000000, 0.000000, 4142.051270, 4242.563965, 4014.871582, 3960.000000, 4312.307617, 0.000000, 8147.000000, 8350.000000, 0.000000, 0.000000, 0.000000, 3.000000, 522.199997, 1557655314.427390, 4.000000, 2.000000, 1.000000, 4.000000, 4.000000
33.000000, 0.000000, 4135.384277, 4231.281738, 3968.205078, 3948.717773, 4287.692383, 0.000000, 8146.000000, 8340.000000, 0.000000, 0.000000, 0.000000, 3.000000, 530.100021, 1557655314.435290, 4.000000, 2.000000, 1.000000, 4.000000, 4.000000
34.000000, 0.000000, 4124.615234, 4227.179199, 3975.897217, 3925.640869, 4258.461426, 0.000000, 8142.000000, 8346.000000, 0.000000, 0.000000, 0.000000, 3.000000, 538.100021, 1557655314.443290, 4.000000, 2.000000, 1.000000, 4.000000, 4.000000
35.000000, 0.000000, 4131.794922, 4236.922852, 4026.153809, 3942.051270, 4273.333008, 0.000000, 8145.000000, 8354.000000, 0.000000, 0.000000, 0.000000, 3.000000, 546.100021, 1557655314.451290, 4.000000, 2.000000, 1.000000, 4.000000, 4.000000
36.000000, 0.000000, 4156.410156, 4240.000000, 3958.974365, 3960.512695, 4297.436035, 0.000000, 8141.000000, 8343.000000, 0.000000, 0.000000, 0.000000, 3.000000, 553.900009, 1557655314.459090, 4.000000, 2.000000, 1.000000, 4.000000, 4.000000
37.000000, 0.000000, 4171.281738, 4243.589844, 4006.666504, 3956.923096, 4293.333008, 0.000000, 8146.000000, 8345.000000, 0.000000, 0.000000, 0.000000, 3.000000, 561.699997, 1557655314.466890, 4.000000, 2.000000, 1.000000, 4.000000, 4.000000
38.000000, 0.000000, 4155.897461, 4235.897461, 3982.563965, 3944.615234, 4282.051270, 0.000000, 8142.000000, 8357.000000, 0.000000, 0.000000, 0.000000, 3.000000, 569.600021, 1557655314.474790, 4.000000, 2.000000, 1.000000, 4.000000, 4.000000
39.000000, 0.000000, 4144.102539, 4228.205078, 3970.769043, 3947.692139, 4283.589844, 0.000000, 8144.000000, 8359.000000, 0.000000, 0.000000, 0.000000, 3.000000, 577.400009, 1557655314.482590, 4.000000, 2.000000, 1.000000, 4.000000, 4.000000
40.000000, 0.000000, 4156.410156, 4242.051270, 4012.820313, 3956.923096, 4276.922852, 0.000000, 8144.000000, 8352.000000, 0.000000, 0.000000, 0.000000, 3.000000, 585.199997, 1557655314.490390, 4.000000, 2.000000, 1.000000, 4.000000, 4.000000
41.000000, 0.000000, 4158.974121, 4250.256348, 3948.717773, 3947.692139, 4263.076660, 0.000000, 8140.000000, 8353.000000, 0.000000, 0.000000, 0.000000, 3.000000, 593.199997, 1557655314.498390, 4.000000, 2.000000, 1.000000, 4.000000, 4.000000
42.000000, 0.000000, 4154.358887, 4246.153809, 4006.666504, 3942.563965, 4268.717773, 0.000000, 8142.000000, 8349.000000, 0.000000, 0.000000, 0.000000, 3.000000, 601.199997, 1557655314.506390, 4.000000, 2.000000, 1.000000, 4.000000, 4.000000
43.000000, 0.000000, 4154.871582, 4249.230469, 3993.333252, 3941.025635, 4272.307617, 0.000000, 8141.000000, 8350.000000, 0.000000, 0.000000, 0.000000, 3.000000, 609.100021, 1557655314.514290, 4.000000, 2.000000, 1.000000, 4.000000, 4.000000
44.000000, 0.000000, 4135.384277, 4240.512695, 3958.461426, 3940.000000, 4248.717773, 0.000000, 8139.000000, 8356.000000, 0.000000, 0.000000, 0.000000, 3.000000, 617.100021, 1557655314.522290, 4.000000, 2.000000, 1.000000, 4.000000, 4.000000
45.000000, 0.000000, 4117.436035, 4230.256348, 4013.845947, 3943.076904, 4234.871582, 0.000000, 8142.000000, 8352.000000, 0.000000, 0.000000, 0.000000, 3.000000, 625.100021, 1557655314.530290, 4.000000, 2.000000, 1.000000, 4.000000, 4.000000
46.000000, 0.000000, 4131.281738, 4250.256348, 3965.128174, 3941.538330, 4248.205078, 0.000000, 8141.000000, 8351.000000, 0.000000, 0.000000, 0.000000, 3.000000, 632.900009, 1557655314.538090, 4.000000, 2.000000, 1.000000, 4.000000, 4.000000
47.000000, 0.000000, 4143.076660, 4262.051270, 4001.538330, 3949.743408, 4244.615234, 0.000000, 8140.000000, 8361.000000, 0.000000, 0.000000, 0.000000, 3.000000, 640.699997, 1557655314.545890, 4.000000, 2.000000, 1.000000, 4.000000, 4.000000
48.000000, 0.000000, 4131.281738, 4241.538574, 3990.769043, 3950.769043, 4223.589844, 0.000000, 8154.000000, 8359.000000, 0.000000, 0.000000, 0.000000, 3.000000, 648.400009, 1557655314.553590, 4.000000, 2.000000, 1.000000, 4.000000, 4.000000
49.000000, 0.000000, 4128.205078, 4239.487305, 3962.563965, 3938.974365, 4233.846191, 0.000000, 8154.000000, 8349.000000, 0.000000, 0.000000, 0.000000, 3.000000, 656.199997, 1557655314.561390, 4.000000, 2.000000, 1.000000, 4.000000, 4.000000
50.000000, 0.000000, 4149.743652, 4249.230469, 4017.948730, 3946.153809, 4258.461426, 0.000000, 8155.000000, 8340.000000, 0.000000, 0.000000, 0.000000, 3.000000, 664.199997, 1557655314.569390, 4.000000, 2.000000, 1.000000, 4.000000, 4.000000
51.000000, 0.000000, 4167.692383, 4249.743652, 3956.923096, 3957.948730, 4260.000000, 0.000000, 8153.000000, 8347.000000, 0.000000, 0.000000, 0.000000, 3.000000, 672.199997, 1557655314.577390, 4.000000, 2.000000, 1.000000, 4.000000, 4.000000
52.000000, 0.000000, 4172.820313, 4268.717773, 3996.410156, 3967.179443, 4259.487305, 0.000000, 8152.000000, 8351.000000, 0.000000, 0.000000, 0.000000, 3.000000, 680.100021, 1557655314.585290, 4.000000, 2.000000, 1.000000, 4.000000, 4.000000
53.000000, 0.000000, 4173.333008, 4280.512695, 4005.640869, 3966.153809, 4255.897461, 0.000000, 8147.000000, 8345.000000, 0.000000, 0.000000, 0.000000, 3.000000, 687.900009, 1557655314.593090, 4.000000, 2.000000, 1.000000, 4.000000, 4.000000
54.000000, 0.000000, 4178.974121, 4264.102539, 3956.410156, 3957.948730, 4243.589844, 0.000000, 8151.000000, 8344.000000, 0.000000, 0.000000, 0.000000, 3.000000, 695.600021, 1557655314.600790, 4.000000, 2.000000, 1.000000, 4.000000, 4.000000
55.000000, 0.000000, 4188.717773, 4263.589844, 4017.435791, 3961.538330, 4260.512695, 0.000000, 8151.000000, 8343.000000, 0.000000, 0.000000, 0.000000, 3.000000, 703.400009, 1557655314.608590, 4.000000, 2.000000, 1.000000, 4.000000, 4.000000
56.000000, 0.000000, 4178.461426, 4269.743652, 3964.615234, 3952.820313, 4269.743652, 0.000000, 8150.000000, 8338.000000, 0.000000, 0.000000, 0.000000, 3.000000, 711.199997, 1557655314.616390, 4.000000, 2.000000, 1.000000, 4.000000, 4.000000
57.000000, 0.000000, 4165.127930, 4255.384277, 3983.076904, 3941.538330, 4246.153809, 0.000000, 8149.000000, 8343.000000, 0.000000, 0.000000, 0.000000, 3.000000, 719.100021, 1557655314.624290, 4.000000, 2.000000, 1.000000, 4.000000, 4.000000
58.000000, 0.000000, 4173.846191, 4256.410156, 4002.051270, 3936.923096, 4237.948730, 0.000000, 8151.000000, 8346.000000, 0.000000, 0.000000, 0.000000, 3.000000, 727.100021, 1557655314.632290, 4.000000, 2.000000, 1.000000, 4.000000, 4.000000
59.000000, 0.000000, 4175.897461, 4266.153809, 3951.794678, 3927.179443, 4240.000000, 0.000000, 8146.000000, 8346.000000, 0.000000, 0.000000, 0.000000, 3.000000, 734.999985, 1557655314.640190, 4.000000, 2.000000, 1.000000, 4.000000, 4.000000
60.000000, 0.000000, 4168.205078, 4262.563965, 4017.435791, 3930.769043, 4232.307617, 0.000000, 8145.000000, 8352.000000, 0.000000, 0.000000, 0.000000, 3.000000, 742.999985, 1557655314.648190, 4.000000, 2.000000, 1.000000, 4.000000, 4.000000
61.000000, 0.000000, 4172.820313, 4268.205078, 3969.230713, 3932.820313, 4224.615234, 0.000000, 8143.000000, 8351.000000, 0.000000, 0.000000, 0.000000, 3.000000, 750.999985, 1557655314.656190, 4.000000, 2.000000, 1.000000, 4.000000, 4.000000
62.000000, 0.000000, 4177.436035, 4276.410156, 3973.333252, 3930.256348, 4223.589844, 0.000000, 8142.000000, 8341.000000, 0.000000, 0.000000, 0.000000, 3.000000, 758.799973, 1557655314.663990, 4.000000, 2.000000, 1.000000, 4.000000, 4.000000
63.000000, 0.000000, 4173.333008, 4276.410156, 4007.179443, 3936.923096, 4227.179199, 0.000000, 8154.000000, 8346.000000, 0.000000, 0.000000, 0.000000, 3.000000, 766.600021, 1557655314.671790, 4.000000, 2.000000, 1.000000, 4.000000, 4.000000
64.000000, 0.000000, 4169.743652, 4263.076660, 3953.845947, 3946.153809, 4231.794922, 500.000000, 8143.000000, 8349.000000, 0.000000, 0.000000, 0.000000, 3.000000, 774.299973, 1557655314.679490, 4.000000, 2.000000, 1.000000, 4.000000, 4.000000
65.000000, 0.000000, 4174.358887, 4251.281738, 4008.717773, 3949.743408, 4231.794922, 500.000000, 8145.000000, 8346.000000, 0.000000, 0.000000, 0.000000, 3.000000, 782.199997, 1557655314.687390, 4.000000, 2.000000, 1.000000, 4.000000, 4.000000
66.000000, 0.000000, 4167.692383, 4260.512695, 3968.205078, 3931.794678, 4218.974121, 16194.000000, 8150.000000, 8339.000000, 0.000000, 0.000000, 0.000000, 3.000000, 790.100021, 1557655314.695290, 4.000000, 2.000000, 1.000000, 4.000000, 4.000000
67.000000, 0.000000, 4141.538574, 4265.641113, 3971.794678, 3907.179443, 4188.717773, 500.000000, 8144.000000, 8341.000000, 0.000000, 0.000000, 0.000000, 3.000000, 798.100021, 1557655314.703290, 4.000000, 2.000000, 1.000000, 4.000000, 4.000000
68.000000, 0.000000, 4136.410156, 4259.487305, 4014.871582, 3906.153809, 4172.820313, 187.000000, 8144.000000, 8350.000000, 0.000000, 0.000000, 0.000000, 3.000000, 806.100021, 1557655314.711290, 4.000000, 2.000000, 1.000000, 4.000000, 4.000000
69.000000, 0.000000, 4159.487305, 4266.666504, 3944.615234, 3926.153809, 4193.333008, 500.000000, 8146.000000, 8343.000000, 0.000000, 0.000000, 0.000000, 3.000000, 813.999985, 1557655314.719190, 4.000000, 2.000000, 1.000000, 4.000000, 4.000000
70.000000, 0.000000, 4168.717773, 4278.974121, 3995.384521, 3935.384521, 4210.256348, 55.000000, 8145.000000, 8343.000000, 0.000000, 0.000000, 0.000000, 3.000000, 821.799973, 1557655314.726990, 4.000000, 2.000000, 1.000000, 4.000000, 4.000000
71.000000, 0.000000, 4165.127930, 4275.897461, 3986.666504, 3923.589600, 4213.333008, 500.000000, 8139.000000, 8346.000000, 0.000000, 0.000000, 0.000000, 3.000000, 829.600021, 1557655314.734790, 4.000000, 2.000000, 1.000000, 4.000000, 4.000000
72.000000, 0.000000, 4176.410156, 4272.307617, 3978.461426, 3936.410156, 4227.692383, 500.000000, 8151.000000, 8341.000000, 0.000000, 0.000000, 0.000000, 3.000000, 837.400009, 1557655314.742590, 4.000000, 2.000000, 1.000000, 4.000000, 4.000000
73.000000, 0.000000, 4180.000000, 4271.281738, 4007.692139, 3951.281982, 4222.051270, 16098.000000, 8147.000000, 8348.000000, 0.000000, 0.000000, 0.000000, 3.000000, 845.199997, 1557655314.750390, 4.000000, 2.000000, 1.000000, 4.000000, 4.000000
74.000000, 0.000000, 4163.589844, 4261.538574, 3942.051270, 3930.256348, 4189.743652, 500.000000, 8145.000000, 8352.000000, 0.000000, 0.000000, 0.000000, 3.000000, 853.100021, 1557655314.758290, 4.000000, 2.000000, 1.000000, 4.000000, 4.000000
75.000000, 0.000000, 4175.384277, 4269.743652, 4007.179443, 3941.538330, 4197.436035, 16185.000000, 8149.000000, 8345.000000, 0.000000, 0.000000, 0.000000, 3.000000, 861.099997, 1557655314.766290, 4.000000, 2.000000, 1.000000, 4.000000, 4.000000
