title:bhushan happy 1, recorded:12.05.19 06.41.56, timestamp started:2019-05-12T06:41:56.359620+05:30, sampling:128, subject:, labels:COUNTER INTERPOLATED AF3 T7 Pz T8 AF4 RAW_CQ GYROX GYROY MARKER MARKER_HARDWARE SYNC TIME_STAMP_s TIME_STAMP_ms TimeStamp CQ_AF3 CQ_T7 CQ_Pz CQ_T8 CQ_AF4, chan:20, samples:15401, units:emotiv
52.000000, 0.000000, 2668.717773, 7768.717773, 5085.127930, 7582.563965, 7773.333008, 0.000000, 8239.000000, 8217.000000, 1.000000, 3.000000, 0.000000, 0.000000, 0.000000, 1557623516.359620, 2.000000, 1.000000, 4.000000, 4.000000, 4.000000
53.000000, 0.000000, 2505.128174, 7768.717773, 5057.435547, 7557.435547, 7772.820313, 0.000000, 8231.000000, 8211.000000, 0.000000, 0.000000, 0.000000, 0.000000, 8.000000, 1557623516.367620, 2.000000, 1.000000, 4.000000, 4.000000, 4.000000
54.000000, 0.000000, 2399.487061, 7768.717773, 5052.820313, 7537.948730, 7773.333008, 0.000000, 8235.000000, 8218.000000, 0.000000, 0.000000, 0.000000, 0.000000, 16.000000, 1557623516.375620, 2.000000, 1.000000, 4.000000, 4.000000, 4.000000
55.000000, 0.000000, 2335.897461, 7768.717773, 5058.974121, 7532.820313, 7775.384277, 0.000000, 8238.000000, 8223.000000, 0.000000, 0.000000, 0.000000, 0.000000, 23.700012, 1557623516.383320, 2.000000, 1.000000, 4.000000, 4.000000, 4.000000
56.000000, 0.000000, 2257.948730, 7768.717773, 5047.692383, 7509.743164, 7768.717773, 0.000000, 8246.000000, 8238.000000, 0.000000, 0.000000, 0.000000, 0.000000, 31.500000, 1557623516.391120, 2.000000, 1.000000, 4.000000, 4.000000, 4.000000
57.000000, 0.000000, 2205.128174, 7768.717773, 5041.025391, 7473.333008, 7752.307617, 0.000000, 8256.000000, 8249.000000, 0.000000, 0.000000, 0.000000, 0.000000, 39.300049, 1557623516.398920, 2.000000, 1.000000, 4.000000, 4.000000, 4.000000
58.000000, 0.000000, 2204.102539, 7768.717773, 5030.769043, 7453.846191, 7738.461426, 0.000000, 8264.000000, 8253.000000, 0.000000, 0.000000, 0.000000, 0.000000, 47.200012, 1557623516.406820, 2.000000, 1.000000, 4.000000, 4.000000, 4.000000
59.000000, 0.000000, 2194.358887, 7768.717773, 5019.486816, 7441.025391, 7727.179199, 0.000000, 8261.000000, 8263.000000, 0.000000, 0.000000, 0.000000, 0.000000, 55.100037, 1557623516.414720, 2.000000, 1.000000, 4.000000, 4.000000, 4.000000
60.000000, 0.000000, 2177.435791, 7768.717773, 5014.358887, 7420.512695, 7716.922852, 0.000000, 8259.000000, 8270.000000, 0.000000, 0.000000, 0.000000, 0.000000, 63.100037, 1557623516.422720, 2.000000, 1.000000, 4.000000, 4.000000, 4.000000
61.000000, 0.000000, 2169.230713, 7768.717773, 5009.743652, 7397.948730, 7696.922852, 0.000000, 8270.000000, 8259.000000, 0.000000, 0.000000, 0.000000, 0.000000, 71.100037, 1557623516.430720, 2.000000, 1.000000, 4.000000, 4.000000, 4.000000
62.000000, 0.000000, 2093.846191, 7768.717773, 5001.025391, 7361.538086, 7673.333008, 0.000000, 8277.000000, 8248.000000, 0.000000, 0.000000, 0.000000, 0.000000, 78.900024, 1557623516.438520, 2.000000, 1.000000, 4.000000, 4.000000, 4.000000
63.000000, 0.000000, 1988.717896, 7768.717773, 4984.102539, 7325.640625, 7658.461426, 0.000000, 8274.000000, 8262.000000, 0.000000, 0.000000, 0.000000, 0.000000, 86.700012, 1557623516.446320, 2.000000, 1.000000, 4.000000, 4.000000, 4.000000
64.000000, 0.000000, 1937.435791, 7769.230469, 4982.563965, 7315.384277, 7631.794922, 500.000000, 8273.000000, 8279.000000, 0.000000, 0.000000, 0.000000, 0.000000, 94.400024, 1557623516.454020, 2.000000, 1.000000, 4.000000, 4.000000, 4.000000
65.000000, 0.000000, 1892.820435, 7768.205078, 4978.974121, 7297.948730, 7601.538086, 500.000000, 8266.000000, 8282.000000, 0.000000, 0.000000, 0.000000, 0.000000, 102.200012, 1557623516.461820, 2.000000, 1.000000, 4.000000, 4.000000, 4.000000
66.000000, 0.000000, 1860.512817, 7769.230469, 4968.205078, 7262.563965, 7602.051270, 140.000000, 8267.000000, 8305.000000, 0.000000, 0.000000, 0.000000, 0.000000, 110.200012, 1557623516.469820, 1.000000, 1.000000, 4.000000, 4.000000, 4.000000
67.000000, 0.000000, 1873.846069, 7770.769043, 4965.127930, 7233.333008, 7596.922852, 500.000000, 8272.000000, 8312.000000, 0.000000, 0.000000, 0.000000, 0.000000, 118.200012, 1557623516.477820, 1.000000, 1.000000, 4.000000, 4.000000, 4.000000
68.000000, 0.000000, 1857.948730, 7766.666504, 4952.820313, 7198.974121, 7563.589355, 0.000000, 8275.000000, 8330.000000, 0.000000, 0.000000, 0.000000, 0.000000, 126.200012, 1557623516.485820, 1.000000, 0.000000, 4.000000, 4.000000, 4.000000
69.000000, 0.000000, 1774.871704, 7766.666504, 4956.410156, 7170.256348, 7547.691895, 500.000000, 8282.000000, 8332.000000, 0.000000, 0.000000, 0.000000, 0.000000, 134.100037, 1557623516.493720, 1.000000, 0.000000, 4.000000, 4.000000, 4.000000
70.000000, 0.000000, 1730.769165, 7771.281738, 4961.538574, 7164.102539, 7545.127930, 16201.000000, 8280.000000, 8350.000000, 0.000000, 0.000000, 0.000000, 0.000000, 142.100037, 1557623516.501720, 1.000000, 0.000000, 4.000000, 4.000000, 4.000000
71.000000, 0.000000, 1768.717896, 7766.666504, 4949.230469, 7132.820313, 7516.410156, 500.000000, 8292.000000, 8351.000000, 0.000000, 0.000000, 0.000000, 0.000000, 149.900024, 1557623516.509520, 1.000000, 0.000000, 4.000000, 4.000000, 4.000000
72.000000, 0.000000, 1772.820435, 7751.281738, 4949.743652, 7062.563965, 7478.461426, 500.000000, 8288.000000, 8373.000000, 0.000000, 0.000000, 0.000000, 0.000000, 157.700012, 1557623516.517320, 1.000000, 0.000000, 4.000000, 4.000000, 4.000000
73.000000, 0.000000, 1710.256348, 7736.410156, 4946.666504, 7023.076660, 7451.794922, 16071.000000, 8299.000000, 8386.000000, 0.000000, 0.000000, 0.000000, 0.000000, 165.400024, 1557623516.525020, 1.000000, 0.000000, 4.000000, 4.000000, 4.000000
74.000000, 0.000000, 1694.358887, 7729.743164, 4936.922852, 7014.358887, 7429.230469, 500.000000, 8306.000000, 8395.000000, 0.000000, 0.000000, 0.000000, 0.000000, 173.200012, 1557623516.532820, 1.000000, 0.000000, 4.000000, 4.000000, 4.000000
75.000000, 0.000000, 1766.666626, 7722.563965, 4930.256348, 6974.871582, 7404.102539, 180.000000, 8313.000000, 8389.000000, 0.000000, 0.000000, 0.000000, 0.000000, 181.200012, 1557623516.540820, 1.000000, 0.000000, 4.000000, 4.000000, 2.000000
76.000000, 0.000000, 1792.307617, 7713.846191, 4919.486816, 6925.127930, 7357.435547, 500.000000, 8312.000000, 8401.000000, 0.000000, 0.000000, 0.000000, 0.000000, 189.200012, 1557623516.548820, 1.000000, 0.000000, 4.000000, 4.000000, 2.000000
77.000000, 0.000000, 1729.743530, 7698.974121, 4917.948730, 6892.820313, 7309.743652, 500.000000, 8315.000000, 8418.000000, 0.000000, 0.000000, 0.000000, 0.000000, 197.000000, 1557623516.556620, 1.000000, 0.000000, 4.000000, 4.000000, 2.000000
78.000000, 0.000000, 1664.102539, 7674.871582, 4913.333008, 6851.794922, 7291.281738, 450.000000, 8311.000000, 8419.000000, 0.000000, 0.000000, 0.000000, 0.000000, 204.900024, 1557623516.564520, 1.000000, 0.000000, 4.000000, 4.000000, 2.000000
79.000000, 0.000000, 1612.820435, 7661.025391, 4901.538574, 6811.794922, 7268.205078, 180.000000, 8293.000000, 8435.000000, 0.000000, 0.000000, 0.000000, 0.000000, 212.700012, 1557623516.572320, 1.000000, 0.000000, 4.000000, 4.000000, 2.000000
80.000000, 0.000000, 1542.564087, 7655.897461, 4889.230469, 6783.076660, 7219.486816, 450.000000, 8289.000000, 8434.000000, 0.000000, 0.000000, 0.000000, 0.000000, 220.500000, 1557623516.580120, 1.000000, 0.000000, 4.000000, 4.000000, 2.000000
81.000000, 0.000000, 1475.897339, 7625.127930, 4882.051270, 6743.076660, 7182.563965, 450.000000, 8261.000000, 8428.000000, 0.000000, 0.000000, 0.000000, 0.000000, 228.300049, 1557623516.587920, 1.000000, 0.000000, 4.000000, 4.000000, 2.000000
82.000000, 0.000000, 1434.358887, 7588.717773, 4890.256348, 6711.794922, 7169.230469, 450.000000, 8249.000000, 8406.000000, 0.000000, 0.000000, 0.000000, 0.000000, 236.100037, 1557623516.595720, 1.000000, 0.000000, 4.000000, 4.000000, 2.000000
83.000000, 0.000000, 1397.435913, 7587.691895, 4880.000000, 6688.205078, 7140.000000, 180.000000, 8240.000000, 8366.000000, 0.000000, 0.000000, 0.000000, 0.000000, 244.000000, 1557623516.603620, 1.000000, 0.000000, 4.000000, 4.000000, 2.000000
84.000000, 0.000000, 1393.333252, 7565.640625, 4868.205078, 6650.256348, 7096.410156, 450.000000, 8236.000000, 8343.000000, 0.000000, 0.000000, 0.000000, 0.000000, 252.000000, 1557623516.611620, 1.000000, 0.000000, 4.000000, 4.000000, 2.000000
85.000000, 0.000000, 1390.769165, 7513.333008, 4867.179199, 6623.076660, 7053.846191, 450.000000, 8240.000000, 8312.000000, 0.000000, 0.000000, 0.000000, 0.000000, 260.000000, 1557623516.619620, 1.000000, 0.000000, 4.000000, 4.000000, 2.000000
86.000000, 0.000000, 1342.051270, 7507.691895, 4857.435547, 6598.461426, 7019.486816, 450.000000, 8238.000000, 8310.000000, 0.000000, 0.000000, 0.000000, 0.000000, 268.000000, 1557623516.627620, 1.000000, 0.000000, 4.000000, 4.000000, 2.000000
87.000000, 0.000000, 1314.358887, 7515.897461, 4866.153809, 6556.410156, 6998.461426, 180.000000, 8237.000000, 8297.000000, 0.000000, 0.000000, 0.000000, 0.000000, 275.700012, 1557623516.635320, 1.000000, 0.000000, 4.000000, 4.000000, 2.000000
88.000000, 0.000000, 1321.025635, 7461.538086, 4862.563965, 6526.666504, 6955.384277, 450.000000, 8237.000000, 8286.000000, 0.000000, 0.000000, 0.000000, 0.000000, 283.500000, 1557623516.643120, 1.000000, 0.000000, 4.000000, 4.000000, 2.000000
89.000000, 0.000000, 1310.769165, 7411.281738, 4843.076660, 6506.153809, 6906.153809, 450.000000, 8210.000000, 8297.000000, 0.000000, 0.000000, 0.000000, 0.000000, 291.300049, 1557623516.650920, 1.000000, 0.000000, 4.000000, 4.000000, 2.000000
90.000000, 0.000000, 1295.897461, 7402.563965, 4845.641113, 6470.769043, 6891.794922, 450.000000, 8199.000000, 8318.000000, 0.000000, 0.000000, 0.000000, 0.000000, 299.200012, 1557623516.658820, 1.000000, 0.000000, 4.000000, 4.000000, 2.000000
91.000000, 0.000000, 1289.743530, 7352.307617, 4843.589844, 6432.820313, 6856.410156, 180.000000, 8187.000000, 8331.000000, 0.000000, 0.000000, 0.000000, 0.000000, 307.000000, 1557623516.666620, 1.000000, 0.000000, 4.000000, 4.000000, 2.000000
92.000000, 0.000000, 1290.769165, 7278.974121, 4831.794922, 6417.435547, 6782.051270, 450.000000, 8168.000000, 8321.000000, 0.000000, 0.000000, 0.000000, 0.000000, 314.900024, 1557623516.674520, 1.000000, 0.000000, 4.000000, 4.000000, 2.000000
93.000000, 0.000000, 1295.897461, 7263.589355, 4826.666504, 6401.025391, 6748.205078, 450.000000, 8163.000000, 8325.000000, 0.000000, 0.000000, 0.000000, 0.000000, 322.900024, 1557623516.682520, 1.000000, 0.000000, 4.000000, 4.000000, 2.000000
94.000000, 0.000000, 1267.692261, 7237.435547, 4823.589844, 6355.384277, 6711.281738, 450.000000, 8174.000000, 8331.000000, 0.000000, 0.000000, 0.000000, 0.000000, 330.900024, 1557623516.690520, 1.000000, 0.000000, 4.000000, 4.000000, 2.000000
95.000000, 0.000000, 1214.871826, 7141.025391, 4813.846191, 6311.794922, 6625.127930, 180.000000, 8182.000000, 8338.000000, 0.000000, 0.000000, 0.000000, 0.000000, 338.700024, 1557623516.698320, 1.000000, 0.000000, 4.000000, 4.000000, 2.000000
96.000000, 0.000000, 1229.743530, 7097.948730, 4807.692383, 6306.666504, 6605.127930, 450.000000, 8198.000000, 8365.000000, 0.000000, 0.000000, 0.000000, 0.000000, 346.500023, 1557623516.706120, 1.000000, 0.000000, 4.000000, 4.000000, 2.000000
97.000000, 0.000000, 1255.897461, 7120.000000, 4813.846191, 6303.589355, 6628.205078, 450.000000, 8220.000000, 8364.000000, 0.000000, 0.000000, 0.000000, 0.000000, 354.200024, 1557623516.713820, 1.000000, 0.000000, 4.000000, 4.000000, 2.000000
98.000000, 0.000000, 1203.076904, 7074.358887, 4804.615234, 6277.435547, 6572.820313, 450.000000, 8268.000000, 8372.000000, 0.000000, 0.000000, 0.000000, 0.000000, 362.000023, 1557623516.721620, 1.000000, 0.000000, 4.000000, 4.000000, 2.000000
99.000000, 0.000000, 1187.692261, 6993.333008, 4797.948730, 6261.538086, 6510.769043, 180.000000, 8284.000000, 8377.000000, 0.000000, 0.000000, 0.000000, 0.000000, 370.000023, 1557623516.729620, 1.000000, 0.000000, 4.000000, 4.000000, 2.000000
100.000000, 0.000000, 1250.769165, 6960.000000, 4801.538574, 6249.230469, 6511.794922, 450.000000, 8329.000000, 8367.000000, 0.000000, 0.000000, 0.000000, 0.000000, 378.000023, 1557623516.737620, 1.000000, 0.000000, 4.000000, 4.000000, 2.000000
101.000000, 0.000000, 1240.000000, 6940.000000, 4782.563965, 6229.230469, 6491.794922, 450.000000, 8339.000000, 8339.000000, 0.000000, 0.000000, 0.000000, 0.000000, 386.000023, 1557623516.745620, 1.000000, 0.000000, 4.000000, 4.000000, 2.000000
102.000000, 0.000000, 1157.948730, 6897.435547, 4774.871582, 6218.974121, 6442.051270, 450.000000, 8349.000000, 8325.000000, 0.000000, 0.000000, 0.000000, 0.000000, 393.900024, 1557623516.753520, 1.000000, 0.000000, 4.000000, 4.000000, 2.000000
103.000000, 0.000000, 1137.435913, 6853.333008, 4777.948730, 6202.563965, 6418.461426, 180.000000, 8349.000000, 8338.000000, 0.000000, 0.000000, 0.000000, 0.000000, 401.900024, 1557623516.761520, 1.000000, 0.000000, 4.000000, 4.000000, 2.000000
104.000000, 0.000000, 1142.564087, 6785.640625, 4762.563965, 6161.538086, 6389.743652, 450.000000, 8351.000000, 8328.000000, 0.000000, 0.000000, 0.000000, 0.000000, 409.700027, 1557623516.769320, 1.000000, 0.000000, 4.000000, 4.000000, 2.000000
105.000000, 0.000000, 1125.128174, 6715.384277, 4754.871582, 6110.256348, 6330.769043, 450.000000, 8357.000000, 8310.000000, 0.000000, 0.000000, 0.000000, 0.000000, 417.500023, 1557623516.777120, 1.000000, 0.000000, 4.000000, 4.000000, 2.000000
106.000000, 0.000000, 1163.076904, 6711.794922, 4760.000000, 6081.025391, 6297.948730, 450.000000, 8365.000000, 8304.000000, 0.000000, 0.000000, 0.000000, 0.000000, 425.200027, 1557623516.784820, 1.000000, 0.000000, 4.000000, 4.000000, 2.000000
107.000000, 0.000000, 1224.615356, 6690.769043, 4770.256348, 6072.307617, 6305.127930, 180.000000, 8367.000000, 8303.000000, 0.000000, 0.000000, 0.000000, 0.000000, 433.000023, 1557623516.792620, 1.000000, 0.000000, 4.000000, 4.000000, 2.000000
108.000000, 0.000000, 1227.179443, 6612.307617, 4767.692383, 6054.358887, 6292.307617, 450.000000, 8373.000000, 8295.000000, 0.000000, 0.000000, 0.000000, 0.000000, 441.000031, 1557623516.800620, 1.000000, 0.000000, 4.000000, 4.000000, 2.000000
109.000000, 0.000000, 1220.000000, 6585.127930, 4760.000000, 6018.974121, 6244.615234, 450.000000, 8393.000000, 8260.000000, 0.000000, 0.000000, 0.000000, 0.000000, 449.000031, 1557623516.808620, 1.000000, 0.000000, 4.000000, 4.000000, 2.000000
110.000000, 0.000000, 1252.307617, 6574.358887, 4769.743652, 5993.333008, 6216.410156, 450.000000, 8410.000000, 8231.000000, 0.000000, 0.000000, 0.000000, 0.000000, 457.000031, 1557623516.816620, 1.000000, 0.000000, 4.000000, 4.000000, 2.000000
111.000000, 0.000000, 1257.435913, 6481.538086, 4757.435547, 5974.871582, 6188.205078, 180.000000, 8427.000000, 8174.000000, 0.000000, 0.000000, 0.000000, 0.000000, 464.900024, 1557623516.824520, 1.000000, 0.000000, 4.000000, 4.000000, 2.000000
112.000000, 0.000000, 1214.358887, 6415.897461, 4740.512695, 5938.461426, 6120.000000, 450.000000, 8423.000000, 8162.000000, 0.000000, 0.000000, 0.000000, 0.000000, 472.700027, 1557623516.832320, 1.000000, 0.000000, 4.000000, 4.000000, 2.000000
113.000000, 0.000000, 1192.307617, 6410.769043, 4740.512695, 5907.179199, 6061.025391, 450.000000, 8413.000000, 8141.000000, 0.000000, 0.000000, 0.000000, 0.000000, 480.500031, 1557623516.840120, 1.000000, 0.000000, 4.000000, 4.000000, 2.000000
114.000000, 0.000000, 1178.974365, 6357.435547, 4727.692383, 5864.102539, 6031.281738, 450.000000, 8407.000000, 8130.000000, 0.000000, 0.000000, 0.000000, 0.000000, 488.300018, 1557623516.847920, 1.000000, 0.000000, 4.000000, 4.000000, 2.000000
115.000000, 0.000000, 1146.666626, 6286.153809, 4725.127930, 5793.333008, 5996.410156, 180.000000, 8393.000000, 8104.000000, 0.000000, 0.000000, 0.000000, 0.000000, 496.100021, 1557623516.855720, 1.000000, 0.000000, 4.000000, 4.000000, 2.000000
116.000000, 0.000000, 1152.307617, 6238.461426, 4725.641113, 5760.512695, 5960.000000, 450.000000, 8384.000000, 8104.000000, 0.000000, 0.000000, 0.000000, 0.000000, 504.000031, 1557623516.863620, 1.000000, 0.000000, 4.000000, 4.000000, 2.000000
117.000000, 0.000000, 1171.794800, 6191.794922, 4721.025391, 5769.230469, 5926.153809, 450.000000, 8369.000000, 8092.000000, 0.000000, 0.000000, 0.000000, 0.000000, 512.000031, 1557623516.871620, 1.000000, 0.000000, 4.000000, 4.000000, 2.000000
118.000000, 0.000000, 1138.461548, 6154.358887, 4707.692383, 5728.717773, 5866.666504, 450.000000, 8367.000000, 8085.000000, 0.000000, 0.000000, 0.000000, 0.000000, 520.000031, 1557623516.879620, 1.000000, 0.000000, 4.000000, 4.000000, 2.000000
119.000000, 0.000000, 1111.794800, 6104.102539, 4683.589844, 5646.153809, 5806.666504, 180.000000, 8363.000000, 8092.000000, 0.000000, 0.000000, 0.000000, 0.000000, 528.000031, 1557623516.887620, 1.000000, 0.000000, 4.000000, 4.000000, 2.000000
120.000000, 0.000000, 1135.384644, 6047.179199, 4695.897461, 5631.794922, 5780.512695, 450.000000, 8367.000000, 8092.000000, 0.000000, 0.000000, 0.000000, 0.000000, 535.900024, 1557623516.895520, 1.000000, 0.000000, 4.000000, 4.000000, 2.000000
121.000000, 0.000000, 1140.000000, 6010.769043, 4704.615234, 5638.461426, 5746.153809, 450.000000, 8357.000000, 8071.000000, 0.000000, 0.000000, 0.000000, 0.000000, 543.700027, 1557623516.903320, 1.000000, 0.000000, 4.000000, 4.000000, 2.000000
122.000000, 0.000000, 1110.256348, 5937.948730, 4677.435547, 5577.948730, 5684.102539, 450.000000, 8358.000000, 8053.000000, 0.000000, 0.000000, 0.000000, 0.000000, 551.500031, 1557623516.911120, 1.000000, 0.000000, 4.000000, 4.000000, 2.000000
123.000000, 0.000000, 1123.076904, 5849.743652, 4662.051270, 5528.205078, 5641.025391, 180.000000, 8361.000000, 8044.000000, 0.000000, 0.000000, 0.000000, 0.000000, 559.300018, 1557623516.918920, 1.000000, 0.000000, 4.000000, 4.000000, 2.000000
124.000000, 0.000000, 1145.640991, 5838.974121, 4666.666504, 5538.974121, 5623.076660, 450.000000, 8375.000000, 8025.000000, 0.000000, 0.000000, 0.000000, 0.000000, 567.300018, 1557623516.926920, 1.000000, 0.000000, 4.000000, 4.000000, 2.000000
125.000000, 0.000000, 1115.897461, 5797.948730, 4667.179199, 5519.486816, 5586.153809, 450.000000, 8367.000000, 8046.000000, 0.000000, 0.000000, 0.000000, 0.000000, 575.100037, 1557623516.934720, 1.000000, 0.000000, 4.000000, 4.000000, 2.000000
126.000000, 0.000000, 1089.743530, 5693.846191, 4644.615234, 5439.486816, 5532.820313, 450.000000, 8376.000000, 8099.000000, 0.000000, 0.000000, 0.000000, 0.000000, 583.100037, 1557623516.942720, 1.000000, 0.000000, 4.000000, 4.000000, 2.000000
127.000000, 0.000000, 1110.256348, 5661.538086, 4637.948730, 5391.794922, 5501.538086, 180.000000, 8385.000000, 8133.000000, 0.000000, 0.000000, 0.000000, 0.000000, 591.100037, 1557623516.950720, 1.000000, 0.000000, 4.000000, 4.000000, 2.000000
128.000000, 0.000000, 1136.410278, 5661.025391, 4655.897461, 5386.153809, 5484.615234, 500.000000, 8406.000000, 8215.000000, 0.000000, 0.000000, 0.000000, 0.000000, 599.000031, 1557623516.958620, 1.000000, 0.000000, 4.000000, 4.000000, 2.000000
0.000000, 0.000000, 1138.974365, 5591.281738, 4648.205078, 5363.076660, 5443.589844, 500.000000, 8411.000000, 8242.000000, 0.000000, 0.000000, 0.000000, 0.000000, 606.800018, 1557623516.966420, 1.000000, 0.000000, 4.000000, 4.000000, 2.000000
1.000000, 0.000000, 1134.358887, 5541.538086, 4627.179199, 5318.974121, 5374.358887, 500.000000, 8441.000000, 8244.000000, 0.000000, 0.000000, 0.000000, 0.000000, 614.500031, 1557623516.974120, 1.000000, 0.000000, 4.000000, 4.000000, 2.000000
2.000000, 0.000000, 1128.205078, 5550.769043, 4623.076660, 5288.717773, 5329.230469, 16088.000000, 8465.000000, 8230.000000, 0.000000, 0.000000, 0.000000, 0.000000, 622.300018, 1557623516.981920, 4.000000, 0.000000, 4.000000, 4.000000, 2.000000
3.000000, 0.000000, 1127.179443, 5502.563965, 4646.153809, 5295.897461, 5330.256348, 500.000000, 8504.000000, 8213.000000, 0.000000, 0.000000, 0.000000, 0.000000, 630.300018, 1557623516.989920, 4.000000, 0.000000, 4.000000, 4.000000, 2.000000
4.000000, 0.000000, 1128.205078, 5420.512695, 4652.820313, 5282.563965, 5308.205078, 35.000000, 8520.000000, 8215.000000, 0.000000, 0.000000, 0.000000, 0.000000, 638.100037, 1557623516.997720, 4.000000, 0.000000, 4.000000, 4.000000, 2.000000
5.000000, 0.000000, 1120.512817, 5397.435547, 4612.820313, 5241.538574, 5247.692383, 500.000000, 8551.000000, 8232.000000, 0.000000, 0.000000, 0.000000, 0.000000, 645.900024, 1557623517.005520, 4.000000, 0.000000, 4.000000, 4.000000, 2.000000
6.000000, 0.000000, 1109.230713, 5376.922852, 4601.025391, 5225.127930, 5219.486816, 16221.000000, 8563.000000, 8241.000000, 0.000000, 0.000000, 0.000000, 0.000000, 653.900024, 1557623517.013520, 4.000000, 0.000000, 4.000000, 4.000000, 2.000000
7.000000, 0.000000, 1085.640991, 5313.846191, 4617.948730, 5209.230469, 5213.846191, 500.000000, 8568.000000, 8274.000000, 0.000000, 0.000000, 0.000000, 0.000000, 661.700012, 1557623517.021320, 4.000000, 0.000000, 4.000000, 4.000000, 2.000000
8.000000, 0.000000, 1078.974365, 5255.384277, 4615.384277, 5179.486816, 5177.948730, 500.000000, 8565.000000, 8285.000000, 0.000000, 0.000000, 0.000000, 0.000000, 669.500031, 1557623517.029120, 4.000000, 0.000000, 4.000000, 4.000000, 2.000000
9.000000, 0.000000, 1126.666626, 5218.974121, 4605.641113, 5165.641113, 5134.871582, 201.000000, 8564.000000, 8287.000000, 0.000000, 0.000000, 0.000000, 0.000000, 677.300018, 1557623517.036920, 4.000000, 0.000000, 4.000000, 2.000000, 2.000000
10.000000, 0.000000, 1188.717896, 5182.051270, 4587.692383, 5136.922852, 5106.666504, 500.000000, 8548.000000, 8297.000000, 0.000000, 0.000000, 0.000000, 0.000000, 685.100037, 1557623517.044720, 4.000000, 0.000000, 4.000000, 2.000000, 2.000000
11.000000, 0.000000, 1201.025635, 5163.076660, 4586.666504, 5086.153809, 5096.410156, 291.000000, 8515.000000, 8311.000000, 0.000000, 0.000000, 0.000000, 0.000000, 693.100037, 1557623517.052720, 4.000000, 0.000000, 4.000000, 2.000000, 2.000000
12.000000, 0.000000, 1160.000000, 5144.102539, 4597.435547, 5081.025391, 5102.563965, 500.000000, 8485.000000, 8311.000000, 0.000000, 0.000000, 0.000000, 0.000000, 701.100037, 1557623517.060720, 4.000000, 0.000000, 4.000000, 2.000000, 2.000000
13.000000, 0.000000, 1103.076904, 5106.153809, 4588.205078, 5093.333008, 5091.794922, 500.000000, 8419.000000, 8343.000000, 0.000000, 0.000000, 0.000000, 0.000000, 709.100037, 1557623517.068720, 4.000000, 0.000000, 4.000000, 2.000000, 2.000000
14.000000, 0.000000, 1066.153809, 5074.358887, 4573.846191, 5058.461426, 5029.230469, 450.000000, 8381.000000, 8367.000000, 0.000000, 0.000000, 0.000000, 0.000000, 717.100037, 1557623517.076720, 4.000000, 0.000000, 4.000000, 2.000000, 2.000000
15.000000, 0.000000, 1018.461487, 5016.410156, 4547.179199, 5009.230469, 4948.717773, 291.000000, 8360.000000, 8403.000000, 0.000000, 0.000000, 0.000000, 0.000000, 724.900024, 1557623517.084520, 4.000000, 0.000000, 4.000000, 2.000000, 2.000000
16.000000, 0.000000, 942.564087, 4946.153809, 4535.384277, 4985.641113, 4889.230469, 0.000000, 8310.000000, 8415.000000, 0.000000, 0.000000, 0.000000, 0.000000, 732.900024, 1557623517.092520, 4.000000, 0.000000, 4.000000, 2.000000, 2.000000
17.000000, 0.000000, 895.897400, 4912.307617, 4540.512695, 4975.384277, 4850.256348, 0.000000, 8290.000000, 8446.000000, 0.000000, 0.000000, 0.000000, 0.000000, 740.700012, 1557623517.100320, 4.000000, 0.000000, 4.000000, 2.000000, 2.000000
18.000000, 0.000000, 879.487183, 4894.358887, 4530.769043, 4962.051270, 4818.461426, 0.000000, 8260.000000, 8459.000000, 0.000000, 0.000000, 0.000000, 0.000000, 748.500031, 1557623517.108120, 4.000000, 0.000000, 4.000000, 2.000000, 2.000000
19.000000, 0.000000, 868.205078, 4877.948730, 4529.743652, 4952.307617, 4791.281738, 0.000000, 8254.000000, 8457.000000, 0.000000, 0.000000, 0.000000, 0.000000, 756.200012, 1557623517.115820, 4.000000, 0.000000, 4.000000, 2.000000, 2.000000
20.000000, 0.000000, 877.435852, 4840.512695, 4533.333008, 4925.127930, 4777.435547, 0.000000, 8255.000000, 8445.000000, 0.000000, 0.000000, 0.000000, 0.000000, 764.200012, 1557623517.123820, 4.000000, 0.000000, 4.000000, 2.000000, 2.000000
21.000000, 0.000000, 898.461487, 4769.230469, 4531.281738, 4881.025391, 4745.127930, 0.000000, 8258.000000, 8431.000000, 0.000000, 0.000000, 0.000000, 0.000000, 772.000031, 1557623517.131620, 4.000000, 0.000000, 4.000000, 2.000000, 2.000000
22.000000, 0.000000, 898.461487, 4720.000000, 4530.256348, 4860.000000, 4686.666504, 0.000000, 8269.000000, 8389.000000, 0.000000, 0.000000, 0.000000, 0.000000, 780.000031, 1557623517.139620, 4.000000, 0.000000, 4.000000, 2.000000, 2.000000
23.000000, 0.000000, 905.640991, 4710.256348, 4525.641113, 4841.538574, 4653.846191, 0.000000, 8274.000000, 8375.000000, 0.000000, 0.000000, 0.000000, 0.000000, 788.000031, 1557623517.147620, 4.000000, 0.000000, 4.000000, 2.000000, 2.000000
24.000000, 0.000000, 923.589722, 4684.615234, 4540.512695, 4813.846191, 4657.435547, 0.000000, 8282.000000, 8360.000000, 0.000000, 0.000000, 0.000000, 0.000000, 795.700012, 1557623517.155320, 4.000000, 0.000000, 4.000000, 2.000000, 2.000000
25.000000, 0.000000, 918.461487, 4662.563965, 4547.179199, 4803.076660, 4647.179199, 0.000000, 8289.000000, 8327.000000, 0.000000, 0.000000, 0.000000, 0.000000, 803.500031, 1557623517.163120, 4.000000, 0.000000, 4.000000, 2.000000, 2.000000
26.000000, 0.000000, 910.769226, 4631.794922, 4534.358887, 4788.205078, 4615.384277, 0.000000, 8293.000000, 8322.000000, 0.000000, 0.000000, 0.000000, 0.000000, 811.300018, 1557623517.170920, 4.000000, 0.000000, 4.000000, 2.000000, 2.000000
27.000000, 0.000000, 916.410217, 4577.435547, 4535.897461, 4751.794922, 4600.000000, 0.000000, 8320.000000, 8285.000000, 0.000000, 0.000000, 0.000000, 0.000000, 819.200012, 1557623517.178820, 4.000000, 0.000000, 4.000000, 2.000000, 2.000000
28.000000, 0.000000, 928.205078, 4568.205078, 4534.358887, 4742.051270, 4598.974121, 0.000000, 8330.000000, 8264.000000, 0.000000, 0.000000, 0.000000, 0.000000, 827.200012, 1557623517.186820, 4.000000, 0.000000, 4.000000, 2.000000, 2.000000
29.000000, 0.000000, 926.153809, 4545.641113, 4520.512695, 4745.127930, 4574.871582, 0.000000, 8359.000000, 8253.000000, 0.000000, 0.000000, 0.000000, 0.000000, 835.000000, 1557623517.194620, 4.000000, 0.000000, 4.000000, 2.000000, 2.000000
30.000000, 0.000000, 936.923035, 4485.127930, 4505.127930, 4697.435547, 4537.948730, 0.000000, 8370.000000, 8274.000000, 0.000000, 0.000000, 0.000000, 0.000000, 843.000000, 1557623517.202620, 4.000000, 0.000000, 4.000000, 2.000000, 2.000000
31.000000, 0.000000, 984.615356, 4477.948730, 4517.948730, 4669.743652, 4543.589844, 0.000000, 8416.000000, 8298.000000, 0.000000, 0.000000, 0.000000, 0.000000, 851.000000, 1557623517.210620, 4.000000, 0.000000, 4.000000, 2.000000, 2.000000
32.000000, 0.000000, 1018.461487, 4474.871582, 4537.948730, 4684.102539, 4549.743652, 0.000000, 8445.000000, 8306.000000, 0.000000, 0.000000, 0.000000, 0.000000, 859.000000, 1557623517.218620, 4.000000, 0.000000, 4.000000, 2.000000, 2.000000
33.000000, 0.000000, 1026.153809, 4416.410156, 4514.871582, 4655.384277, 4504.615234, 0.000000, 8491.000000, 8353.000000, 0.000000, 0.000000, 0.000000, 0.000000, 866.900024, 1557623517.226520, 4.000000, 0.000000, 4.000000, 2.000000, 2.000000
34.000000, 0.000000, 1041.025635, 4376.410156, 4499.487305, 4621.538574, 4481.025391, 0.000000, 8511.000000, 8387.000000, 0.000000, 0.000000, 0.000000, 0.000000, 874.700012, 1557623517.234320, 4.000000, 0.000000, 4.000000, 2.000000, 2.000000
35.000000, 0.000000, 1081.025635, 4370.256348, 4501.538574, 4642.563965, 4489.743652, 0.000000, 8551.000000, 8470.000000, 0.000000, 0.000000, 0.000000, 0.000000, 882.500000, 1557623517.242120, 4.000000, 0.000000, 4.000000, 2.000000, 2.000000
36.000000, 0.000000, 1113.846069, 4343.589844, 4490.769043, 4643.589844, 4451.794922, 0.000000, 8552.000000, 8516.000000, 0.000000, 0.000000, 0.000000, 0.000000, 890.300049, 1557623517.249920, 4.000000, 0.000000, 4.000000, 2.000000, 2.000000
37.000000, 0.000000, 1104.615356, 4301.538574, 4482.051270, 4602.051270, 4408.205078, 0.000000, 8529.000000, 8603.000000, 0.000000, 0.000000, 0.000000, 0.000000, 898.100037, 1557623517.257720, 4.000000, 0.000000, 4.000000, 2.000000, 2.000000
38.000000, 0.000000, 1108.205078, 4278.461426, 4497.435547, 4598.974121, 4448.205078, 0.000000, 8513.000000, 8634.000000, 0.000000, 0.000000, 0.000000, 0.000000, 906.000000, 1557623517.265620, 4.000000, 0.000000, 4.000000, 2.000000, 2.000000
39.000000, 0.000000, 1185.640991, 4336.410156, 4542.051270, 4658.461426, 4530.769043, 0.000000, 8497.000000, 8668.000000, 0.000000, 0.000000, 0.000000, 0.000000, 914.000000, 1557623517.273620, 4.000000, 0.000000, 4.000000, 2.000000, 2.000000
40.000000, 0.000000, 1256.923096, 4446.666504, 4553.333008, 4722.563965, 4590.256348, 0.000000, 8458.000000, 8699.000000, 0.000000, 0.000000, 0.000000, 0.000000, 922.000000, 1557623517.281620, 4.000000, 0.000000, 4.000000, 2.000000, 2.000000
41.000000, 0.000000, 1225.128174, 4447.179199, 4534.871582, 4727.692383, 4611.794922, 0.000000, 8441.000000, 8685.000000, 0.000000, 0.000000, 0.000000, 0.000000, 929.800049, 1557623517.289420, 4.000000, 0.000000, 4.000000, 2.000000, 2.000000
42.000000, 0.000000, 1162.564087, 4374.871582, 4544.102539, 4674.358887, 4580.512695, 0.000000, 8415.000000, 8628.000000, 0.000000, 0.000000, 0.000000, 0.000000, 937.600037, 1557623517.297220, 4.000000, 0.000000, 4.000000, 2.000000, 2.000000
43.000000, 0.000000, 1173.846069, 4382.563965, 4537.435547, 4643.076660, 4519.487305, 0.000000, 8395.000000, 8614.000000, 0.000000, 0.000000, 0.000000, 0.000000, 945.300049, 1557623517.304920, 4.000000, 0.000000, 4.000000, 2.000000, 2.000000
44.000000, 0.000000, 1209.743530, 4393.333008, 4514.871582, 4646.153809, 4474.871582, 0.000000, 8367.000000, 8560.000000, 0.000000, 0.000000, 0.000000, 0.000000, 953.100037, 1557623517.312720, 4.000000, 0.000000, 4.000000, 2.000000, 2.000000
45.000000, 0.000000, 1183.076904, 4330.769043, 4517.435547, 4624.102539, 4424.102539, 0.000000, 8362.000000, 8505.000000, 0.000000, 0.000000, 0.000000, 0.000000, 961.100037, 1557623517.320720, 4.000000, 0.000000, 4.000000, 2.000000, 2.000000
46.000000, 0.000000, 1143.589722, 4259.487305, 4516.410156, 4569.743652, 4305.641113, 0.000000, 8343.000000, 8413.000000, 0.000000, 0.000000, 0.000000, 0.000000, 969.000000, 1557623517.328620, 4.000000, 0.000000, 4.000000, 2.000000, 2.000000
47.000000, 0.000000, 1161.538452, 4214.871582, 4496.922852, 4521.025391, 4179.487305, 0.000000, 8324.000000, 8378.000000, 0.000000, 0.000000, 0.000000, 0.000000, 976.900024, 1557623517.336520, 4.000000, 0.000000, 4.000000, 2.000000, 2.000000
48.000000, 0.000000, 1184.102539, 4189.230469, 4483.589844, 4498.974121, 4145.641113, 0.000000, 8287.000000, 8304.000000, 0.000000, 0.000000, 0.000000, 0.000000, 984.900024, 1557623517.344520, 4.000000, 0.000000, 4.000000, 2.000000, 2.000000
49.000000, 0.000000, 1188.717896, 4177.436035, 4501.538574, 4502.563965, 4140.000000, 0.000000, 8272.000000, 8261.000000, 0.000000, 0.000000, 0.000000, 0.000000, 992.900024, 1557623517.352520, 4.000000, 0.000000, 4.000000, 2.000000, 2.000000
50.000000, 0.000000, 1199.487183, 4160.512695, 4489.743652, 4492.820313, 4086.666504, 0.000000, 8264.000000, 8195.000000, 0.000000, 0.000000, 0.000000, 1.000000, 0.700012, 1557623517.360320, 4.000000, 0.000000, 4.000000, 2.000000, 2.000000
51.000000, 0.000000, 1170.256348, 4151.281738, 4464.615234, 4458.461426, 4058.461426, 0.000000, 8271.000000, 8157.000000, 0.000000, 0.000000, 0.000000, 1.000000, 8.500000, 1557623517.368120, 4.000000, 0.000000, 4.000000, 2.000000, 2.000000
52.000000, 0.000000, 1117.948730, 4138.974121, 4492.307617, 4435.384277, 4057.435791, 0.000000, 8280.000000, 8102.000000, 0.000000, 0.000000, 0.000000, 1.000000, 16.200012, 1557623517.375820, 4.000000, 0.000000, 4.000000, 2.000000, 2.000000
53.000000, 0.000000, 1115.384644, 4095.384521, 4489.743652, 4421.538574, 4004.615234, 0.000000, 8293.000000, 8103.000000, 0.000000, 0.000000, 0.000000, 1.000000, 24.200012, 1557623517.383820, 4.000000, 0.000000, 4.000000, 2.000000, 2.000000
54.000000, 0.000000, 1125.640991, 4086.153809, 4475.384277, 4409.743652, 3970.256348, 0.000000, 8324.000000, 8092.000000, 0.000000, 0.000000, 0.000000, 1.000000, 32.000000, 1557623517.391620, 4.000000, 0.000000, 4.000000, 2.000000, 2.000000
55.000000, 0.000000, 1120.000000, 4102.051270, 4506.153809, 4410.256348, 4011.281982, 0.000000, 8381.000000, 8093.000000, 0.000000, 0.000000, 0.000000, 1.000000, 40.000000, 1557623517.399620, 4.000000, 0.000000, 4.000000, 2.000000, 2.000000
56.000000, 0.000000, 1144.102539, 4066.666504, 4500.512695, 4401.538574, 4016.410156, 0.000000, 8406.000000, 8102.000000, 0.000000, 0.000000, 0.000000, 1.000000, 48.000000, 1557623517.407620, 4.000000, 0.000000, 4.000000, 2.000000, 2.000000
57.000000, 0.000000, 1184.102539, 4043.589600, 4467.179199, 4383.589844, 3981.025635, 0.000000, 8460.000000, 8090.000000, 0.000000, 0.000000, 0.000000, 1.000000, 55.900024, 1557623517.415520, 4.000000, 0.000000, 4.000000, 2.000000, 2.000000
58.000000, 0.000000, 1202.051270, 4056.410156, 4470.769043, 4376.410156, 3990.769043, 0.000000, 8485.000000, 8077.000000, 0.000000, 0.000000, 0.000000, 1.000000, 63.700012, 1557623517.423320, 4.000000, 0.000000, 4.000000, 2.000000, 2.000000
59.000000, 0.000000, 1228.717896, 4032.307617, 4488.717773, 4359.487305, 4007.179443, 0.000000, 8525.000000, 8093.000000, 0.000000, 0.000000, 0.000000, 1.000000, 71.500000, 1557623517.431120, 4.000000, 0.000000, 4.000000, 2.000000, 2.000000
60.000000, 0.000000, 1272.307617, 3996.923096, 4468.717773, 4329.230469, 3992.820313, 0.000000, 8534.000000, 8125.000000, 0.000000, 0.000000, 0.000000, 1.000000, 79.300049, 1557623517.438920, 4.000000, 0.000000, 4.000000, 2.000000, 2.000000
61.000000, 0.000000, 1253.846069, 3990.256348, 4438.974121, 4305.641113, 3974.871582, 0.000000, 8518.000000, 8192.000000, 0.000000, 0.000000, 0.000000, 1.000000, 87.100037, 1557623517.446720, 4.000000, 0.000000, 4.000000, 2.000000, 2.000000
62.000000, 0.000000, 1192.307617, 3957.435791, 4445.641113, 4276.922852, 3936.923096, 0.000000, 8498.000000, 8237.000000, 0.000000, 0.000000, 0.000000, 1.000000, 95.000000, 1557623517.454620, 4.000000, 0.000000, 4.000000, 2.000000, 2.000000
63.000000, 0.000000, 1163.589722, 3890.769043, 4433.333008, 4238.974121, 3875.384521, 0.000000, 8450.000000, 8315.000000, 0.000000, 0.000000, 0.000000, 1.000000, 103.000000, 1557623517.462620, 4.000000, 0.000000, 4.000000, 2.000000, 2.000000
64.000000, 0.000000, 1137.948730, 3847.179443, 4407.692383, 4216.410156, 3840.512695, 500.000000, 8422.000000, 8330.000000, 0.000000, 0.000000, 0.000000, 1.000000, 111.000000, 1557623517.470620, 4.000000, 0.000000, 4.000000, 2.000000, 2.000000
65.000000, 0.000000, 1144.615356, 3868.717773, 4435.384277, 4245.127930, 3872.820313, 500.000000, 8380.000000, 8334.000000, 0.000000, 0.000000, 0.000000, 1.000000, 119.000000, 1557623517.478620, 4.000000, 0.000000, 4.000000, 2.000000, 2.000000
66.000000, 0.000000, 1260.512817, 3957.948730, 4471.281738, 4315.897461, 3951.794678, 189.000000, 8358.000000, 8332.000000, 0.000000, 0.000000, 0.000000, 1.000000, 126.900024, 1557623517.486520, 2.000000, 0.000000, 4.000000, 2.000000, 2.000000
67.000000, 0.000000, 1353.846069, 4022.051270, 4469.743652, 4362.563965, 4003.589600, 500.000000, 8330.000000, 8316.000000, 0.000000, 0.000000, 0.000000, 1.000000, 134.700012, 1557623517.494320, 2.000000, 0.000000, 4.000000, 2.000000, 2.000000
68.000000, 0.000000, 1308.205078, 3969.230713, 4439.487305, 4345.641113, 3972.307617, 16077.000000, 8324.000000, 8289.000000, 0.000000, 0.000000, 0.000000, 1.000000, 142.500000, 1557623517.502120, 2.000000, 4.000000, 4.000000, 2.000000, 2.000000
69.000000, 0.000000, 1280.000000, 3893.333252, 4428.205078, 4306.666504, 3907.179443, 500.000000, 8312.000000, 8283.000000, 0.000000, 0.000000, 0.000000, 1.000000, 150.300049, 1557623517.509920, 2.000000, 4.000000, 4.000000, 2.000000, 2.000000
70.000000, 0.000000, 1355.384521, 3894.358887, 4433.333008, 4274.358887, 3874.358887, 16279.000000, 8308.000000, 8237.000000, 0.000000, 0.000000, 0.000000, 1.000000, 158.100037, 1557623517.517720, 2.000000, 4.000000, 4.000000, 2.000000, 2.000000
71.000000, 0.000000, 1380.000000, 3883.076904, 4403.076660, 4228.205078, 3846.153809, 500.000000, 8310.000000, 8199.000000, 0.000000, 0.000000, 0.000000, 1.000000, 166.000000, 1557623517.525620, 2.000000, 4.000000, 4.000000, 2.000000, 2.000000
72.000000, 0.000000, 1326.153809, 3803.589600, 4390.256348, 4181.538574, 3797.948730, 500.000000, 8302.000000, 8158.000000, 0.000000, 0.000000, 0.000000, 1.000000, 174.000000, 1557623517.533620, 2.000000, 4.000000, 4.000000, 2.000000, 2.000000
73.000000, 0.000000, 1315.384644, 3741.025635, 4398.974121, 4140.000000, 3737.948730, 325.000000, 8285.000000, 8152.000000, 0.000000, 0.000000, 0.000000, 1.000000, 182.000000, 1557623517.541620, 2.000000, 4.000000, 4.000000, 4.000000, 2.000000
74.000000, 0.000000, 1352.820435, 3747.179443, 4386.666504, 4112.820313, 3692.820313, 500.000000, 8267.000000, 8153.000000, 0.000000, 0.000000, 0.000000, 1.000000, 190.000000, 1557623517.549620, 2.000000, 4.000000, 4.000000, 4.000000, 2.000000
75.000000, 0.000000, 1363.076904, 3764.102539, 4381.025391, 4117.436035, 3698.974365, 16207.000000, 8250.000000, 8150.000000, 0.000000, 0.000000, 0.000000, 1.000000, 197.700012, 1557623517.557320, 2.000000, 4.000000, 4.000000, 4.000000, 4.000000
76.000000, 0.000000, 1352.307617, 3713.333252, 4390.256348, 4096.410156, 3706.153809, 500.000000, 8213.000000, 8156.000000, 0.000000, 0.000000, 0.000000, 1.000000, 205.500000, 1557623517.565120, 2.000000, 4.000000, 4.000000, 4.000000, 4.000000
77.000000, 0.000000, 1396.923096, 3653.845947, 4407.692383, 4049.743408, 3666.153809, 500.000000, 8200.000000, 8162.000000, 0.000000, 0.000000, 0.000000, 1.000000, 213.300049, 1557623517.572920, 2.000000, 4.000000, 4.000000, 4.000000, 4.000000
78.000000, 0.000000, 1476.923096, 3651.281982, 4396.922852, 4029.743408, 3622.563965, 450.000000, 8177.000000, 8207.000000, 0.000000, 0.000000, 0.000000, 1.000000, 221.100037, 1557623517.580720, 2.000000, 4.000000, 4.000000, 4.000000, 4.000000
79.000000, 0.000000, 1501.538452, 3648.205078, 4372.307617, 4015.897217, 3611.794678, 16207.000000, 8168.000000, 8229.000000, 0.000000, 0.000000, 0.000000, 1.000000, 229.100037, 1557623517.588720, 2.000000, 4.000000, 4.000000, 4.000000, 4.000000
80.000000, 0.000000, 1473.846069, 3607.692139, 4374.871582, 3982.051270, 3600.000000, 450.000000, 8154.000000, 8281.000000, 0.000000, 0.000000, 0.000000, 1.000000, 237.000000, 1557623517.596620, 2.000000, 4.000000, 4.000000, 4.000000, 4.000000
81.000000, 0.000000, 1521.538452, 3589.230713, 4379.487305, 3971.794678, 3571.794678, 450.000000, 8154.000000, 8300.000000, 0.000000, 0.000000, 0.000000, 1.000000, 245.000000, 1557623517.604620, 2.000000, 4.000000, 4.000000, 4.000000, 4.000000
82.000000, 0.000000, 1661.025635, 3607.179443, 4387.692383, 3980.000000, 3564.615234, 450.000000, 8155.000000, 8368.000000, 0.000000, 0.000000, 0.000000, 1.000000, 253.000000, 1557623517.612620, 2.000000, 4.000000, 4.000000, 4.000000, 4.000000
83.000000, 0.000000, 1707.692261, 3594.358887, 4372.820313, 3939.487061, 3558.461426, 16207.000000, 8163.000000, 8409.000000, 0.000000, 0.000000, 0.000000, 1.000000, 260.800049, 1557623517.620420, 2.000000, 4.000000, 4.000000, 4.000000, 4.000000
84.000000, 0.000000, 1663.589722, 3538.461426, 4337.436035, 3888.205078, 3521.538330, 450.000000, 8178.000000, 8495.000000, 0.000000, 0.000000, 0.000000, 1.000000, 268.600037, 1557623517.628220, 2.000000, 4.000000, 4.000000, 4.000000, 4.000000
85.000000, 0.000000, 1707.692261, 3515.384521, 4350.769043, 3875.897461, 3505.640869, 450.000000, 8206.000000, 8453.000000, 0.000000, 0.000000, 0.000000, 1.000000, 276.300049, 1557623517.635920, 2.000000, 4.000000, 4.000000, 4.000000, 4.000000
86.000000, 0.000000, 1781.025635, 3547.692139, 4374.358887, 3876.410156, 3546.153809, 450.000000, 8207.000000, 8441.000000, 0.000000, 0.000000, 0.000000, 1.000000, 284.100037, 1557623517.643720, 2.000000, 4.000000, 4.000000, 4.000000, 4.000000
87.000000, 0.000000, 1724.615356, 3511.281982, 4358.974121, 3848.205078, 3532.820313, 16207.000000, 8216.000000, 8419.000000, 0.000000, 0.000000, 0.000000, 1.000000, 292.000000, 1557623517.651620, 2.000000, 4.000000, 4.000000, 4.000000, 4.000000
88.000000, 0.000000, 1661.538452, 3403.076904, 4331.281738, 3782.563965, 3435.384521, 450.000000, 8212.000000, 8399.000000, 0.000000, 0.000000, 0.000000, 1.000000, 300.000000, 1557623517.659620, 2.000000, 4.000000, 4.000000, 4.000000, 4.000000
89.000000, 0.000000, 1709.743530, 3396.410156, 4320.000000, 3739.487061, 3395.897461, 450.000000, 8193.000000, 8391.000000, 0.000000, 0.000000, 0.000000, 1.000000, 307.900024, 1557623517.667520, 2.000000, 4.000000, 4.000000, 4.000000, 4.000000
90.000000, 0.000000, 1735.897339, 3424.102539, 4315.384277, 3748.717773, 3411.794678, 450.000000, 8175.000000, 8385.000000, 0.000000, 0.000000, 0.000000, 1.000000, 315.900024, 1557623517.675520, 2.000000, 4.000000, 4.000000, 4.000000, 4.000000
91.000000, 0.000000, 1676.410156, 3354.871826, 4296.922852, 3744.102539, 3369.743408, 16207.000000, 8143.000000, 8401.000000, 0.000000, 0.000000, 0.000000, 1.000000, 323.700025, 1557623517.683320, 2.000000, 4.000000, 4.000000, 4.000000, 4.000000
92.000000, 0.000000, 1632.820435, 3288.205078, 4302.051270, 3680.000000, 3281.538330, 450.000000, 8121.000000, 8415.000000, 0.000000, 0.000000, 0.000000, 1.000000, 331.500025, 1557623517.691120, 2.000000, 4.000000, 4.000000, 4.000000, 4.000000
93.000000, 0.000000, 1638.461548, 3289.230713, 4312.307617, 3621.025635, 3203.589600, 450.000000, 8087.000000, 8454.000000, 0.000000, 0.000000, 0.000000, 1.000000, 339.300024, 1557623517.698920, 2.000000, 4.000000, 4.000000, 4.000000, 4.000000
94.000000, 0.000000, 1630.256348, 3283.076904, 4294.358887, 3605.640869, 3151.281982, 450.000000, 8072.000000, 8467.000000, 0.000000, 0.000000, 0.000000, 1.000000, 347.000023, 1557623517.706620, 2.000000, 4.000000, 4.000000, 4.000000, 4.000000
95.000000, 0.000000, 1612.307617, 3281.025635, 4296.410156, 3598.461426, 3127.179443, 16207.000000, 8047.000000, 8513.000000, 0.000000, 0.000000, 0.000000, 1.000000, 355.000023, 1557623517.714620, 2.000000, 4.000000, 4.000000, 4.000000, 4.000000
96.000000, 0.000000, 1622.051270, 3298.974365, 4306.153809, 3584.615234, 3110.769043, 450.000000, 8035.000000, 8537.000000, 0.000000, 0.000000, 0.000000, 1.000000, 363.000023, 1557623517.722620, 2.000000, 4.000000, 4.000000, 4.000000, 4.000000
97.000000, 0.000000, 1641.025635, 3297.435791, 4313.333008, 3573.333252, 3085.128174, 450.000000, 8038.000000, 8544.000000, 0.000000, 0.000000, 0.000000, 1.000000, 371.000023, 1557623517.730620, 2.000000, 4.000000, 4.000000, 4.000000, 4.000000
98.000000, 0.000000, 1657.948730, 3295.897461, 4314.358887, 3558.974365, 3065.128174, 450.000000, 8042.000000, 8535.000000, 0.000000, 0.000000, 0.000000, 1.000000, 379.000023, 1557623517.738620, 2.000000, 4.000000, 4.000000, 4.000000, 4.000000
99.000000, 0.000000, 1685.640991, 3316.923096, 4290.769043, 3541.025635, 3060.512695, 16207.000000, 8060.000000, 8544.000000, 0.000000, 0.000000, 0.000000, 1.000000, 386.900024, 1557623517.746520, 2.000000, 4.000000, 4.000000, 4.000000, 4.000000
100.000000, 0.000000, 1710.769165, 3310.769043, 4296.922852, 3545.128174, 3076.410156, 450.000000, 8095.000000, 8529.000000, 0.000000, 0.000000, 0.000000, 1.000000, 394.700027, 1557623517.754320, 2.000000, 4.000000, 4.000000, 4.000000, 4.000000
101.000000, 0.000000, 1709.230713, 3300.512695, 4320.000000, 3560.000000, 3097.435791, 450.000000, 8115.000000, 8504.000000, 0.000000, 0.000000, 0.000000, 1.000000, 402.500023, 1557623517.762120, 2.000000, 4.000000, 4.000000, 4.000000, 4.000000
102.000000, 0.000000, 1720.000000, 3303.076904, 4319.487305, 3566.153809, 3090.769043, 450.000000, 8170.000000, 8485.000000, 0.000000, 0.000000, 0.000000, 1.000000, 410.300026, 1557623517.769920, 2.000000, 4.000000, 4.000000, 4.000000, 4.000000
103.000000, 0.000000, 1752.820435, 3276.923096, 4303.589844, 3548.205078, 3049.743408, 16207.000000, 8194.000000, 8491.000000, 0.000000, 0.000000, 0.000000, 1.000000, 418.100021, 1557623517.777720, 2.000000, 4.000000, 4.000000, 4.000000, 4.000000
104.000000, 0.000000, 1801.538452, 3290.769043, 4297.948730, 3530.769043, 3043.589600, 450.000000, 8237.000000, 8510.000000, 0.000000, 0.000000, 0.000000, 1.000000, 426.000023, 1557623517.785620, 2.000000, 4.000000, 4.000000, 4.000000, 4.000000
105.000000, 0.000000, 1832.307617, 3337.435791, 4313.846191, 3533.845947, 3061.025635, 450.000000, 8265.000000, 8531.000000, 0.000000, 0.000000, 0.000000, 1.000000, 434.000023, 1557623517.793620, 2.000000, 4.000000, 4.000000, 4.000000, 4.000000
106.000000, 0.000000, 1803.589722, 3300.000000, 4303.589844, 3515.897461, 3015.384521, 450.000000, 8303.000000, 8569.000000, 0.000000, 0.000000, 0.000000, 1.000000, 442.000031, 1557623517.801620, 2.000000, 4.000000, 4.000000, 4.000000, 4.000000
107.000000, 0.000000, 1773.333252, 3244.615234, 4294.871582, 3483.076904, 2954.358887, 16207.000000, 8326.000000, 8578.000000, 0.000000, 0.000000, 0.000000, 1.000000, 450.000031, 1557623517.809620, 2.000000, 4.000000, 4.000000, 4.000000, 4.000000
108.000000, 0.000000, 1828.717896, 3290.256348, 4322.051270, 3484.102539, 2962.051270, 450.000000, 8370.000000, 8576.000000, 0.000000, 0.000000, 0.000000, 1.000000, 457.900024, 1557623517.817520, 2.000000, 4.000000, 4.000000, 4.000000, 4.000000
109.000000, 0.000000, 1928.205078, 3342.563965, 4315.384277, 3497.435791, 2994.358887, 450.000000, 8379.000000, 8580.000000, 0.000000, 0.000000, 0.000000, 1.000000, 465.700027, 1557623517.825320, 2.000000, 4.000000, 4.000000, 4.000000, 4.000000
110.000000, 0.000000, 1971.794800, 3324.102539, 4296.410156, 3484.102539, 2992.820557, 450.000000, 8391.000000, 8562.000000, 0.000000, 0.000000, 0.000000, 1.000000, 473.500031, 1557623517.833120, 2.000000, 4.000000, 4.000000, 4.000000, 4.000000
111.000000, 0.000000, 1970.256348, 3318.974365, 4302.563965, 3474.871826, 2994.358887, 16207.000000, 8391.000000, 8535.000000, 0.000000, 0.000000, 0.000000, 1.000000, 481.300018, 1557623517.840920, 2.000000, 4.000000, 4.000000, 4.000000, 4.000000
112.000000, 0.000000, 1991.794800, 3357.435791, 4310.256348, 3490.256348, 3029.230713, 450.000000, 8383.000000, 8519.000000, 0.000000, 0.000000, 0.000000, 1.000000, 489.100021, 1557623517.848720, 2.000000, 4.000000, 4.000000, 4.000000, 4.000000
113.000000, 0.000000, 2028.205078, 3376.923096, 4322.563965, 3502.563965, 3052.307617, 450.000000, 8378.000000, 8522.000000, 0.000000, 0.000000, 0.000000, 1.000000, 497.000031, 1557623517.856620, 2.000000, 4.000000, 4.000000, 4.000000, 4.000000
114.000000, 0.000000, 2051.794922, 3328.717773, 4318.974121, 3491.794678, 3030.769043, 450.000000, 8370.000000, 8545.000000, 0.000000, 0.000000, 0.000000, 1.000000, 505.000031, 1557623517.864620, 2.000000, 4.000000, 4.000000, 4.000000, 4.000000
115.000000, 0.000000, 2079.487061, 3302.051270, 4307.692383, 3474.871826, 3013.333252, 16207.000000, 8345.000000, 8546.000000, 0.000000, 0.000000, 0.000000, 1.000000, 513.000031, 1557623517.872620, 2.000000, 4.000000, 4.000000, 4.000000, 4.000000
116.000000, 0.000000, 2118.974365, 3356.410156, 4303.589844, 3496.923096, 3042.051270, 450.000000, 8339.000000, 8574.000000, 0.000000, 0.000000, 0.000000, 1.000000, 521.000031, 1557623517.880620, 2.000000, 4.000000, 4.000000, 4.000000, 4.000000
117.000000, 0.000000, 2129.743652, 3378.974365, 4290.256348, 3526.666504, 3054.871826, 450.000000, 8317.000000, 8615.000000, 0.000000, 0.000000, 0.000000, 1.000000, 528.700027, 1557623517.888320, 2.000000, 4.000000, 4.000000, 4.000000, 4.000000
118.000000, 0.000000, 2120.000000, 3357.948730, 4283.589844, 3518.461426, 3043.589600, 450.000000, 8314.000000, 8621.000000, 0.000000, 0.000000, 0.000000, 1.000000, 536.500031, 1557623517.896120, 2.000000, 4.000000, 4.000000, 4.000000, 4.000000
119.000000, 0.000000, 2125.640869, 3367.179443, 4276.922852, 3510.256348, 3056.410156, 16207.000000, 8317.000000, 8588.000000, 0.000000, 0.000000, 0.000000, 1.000000, 544.300018, 1557623517.903920, 2.000000, 4.000000, 4.000000, 4.000000, 4.000000
120.000000, 0.000000, 2127.179443, 3381.538330, 4285.127930, 3506.666504, 3054.871826, 450.000000, 8322.000000, 8552.000000, 0.000000, 0.000000, 0.000000, 1.000000, 552.200027, 1557623517.911820, 2.000000, 4.000000, 4.000000, 4.000000, 4.000000
121.000000, 0.000000, 2133.846191, 3393.846191, 4314.871582, 3497.435791, 3046.666504, 450.000000, 8325.000000, 8472.000000, 0.000000, 0.000000, 0.000000, 1.000000, 560.200027, 1557623517.919820, 2.000000, 4.000000, 4.000000, 4.000000, 4.000000
122.000000, 0.000000, 2184.615234, 3420.512695, 4337.948730, 3511.281982, 3072.820557, 450.000000, 8333.000000, 8449.000000, 0.000000, 0.000000, 0.000000, 1.000000, 568.100037, 1557623517.927720, 2.000000, 4.000000, 4.000000, 4.000000, 4.000000
123.000000, 0.000000, 2217.948730, 3420.512695, 4348.205078, 3494.871826, 3057.435791, 16207.000000, 8353.000000, 8414.000000, 0.000000, 0.000000, 0.000000, 1.000000, 576.100037, 1557623517.935720, 2.000000, 4.000000, 4.000000, 4.000000, 4.000000
124.000000, 0.000000, 2214.358887, 3418.461426, 4347.692383, 3433.846191, 3005.128174, 450.000000, 8364.000000, 8396.000000, 0.000000, 0.000000, 0.000000, 1.000000, 584.100037, 1557623517.943720, 2.000000, 4.000000, 4.000000, 4.000000, 4.000000
125.000000, 0.000000, 2241.538330, 3427.692139, 4355.897461, 3432.820313, 3009.230713, 450.000000, 8386.000000, 8384.000000, 0.000000, 0.000000, 0.000000, 1.000000, 592.000031, 1557623517.951620, 2.000000, 4.000000, 4.000000, 4.000000, 4.000000
126.000000, 0.000000, 2299.487061, 3460.512695, 4393.333008, 3486.666504, 3062.051270, 450.000000, 8381.000000, 8391.000000, 0.000000, 0.000000, 0.000000, 1.000000, 599.800018, 1557623517.959420, 2.000000, 4.000000, 4.000000, 4.000000, 4.000000
127.000000, 0.000000, 2348.205078, 3544.615234, 4441.538574, 3508.205078, 3134.358887, 16207.000000, 8370.000000, 8391.000000, 0.000000, 0.000000, 0.000000, 1.000000, 607.500031, 1557623517.967120, 2.000000, 4.000000, 4.000000, 4.000000, 4.000000
128.000000, 0.000000, 2356.923096, 3557.948730, 4450.769043, 3493.845947, 3151.281982, 500.000000, 8364.000000, 8378.000000, 0.000000, 0.000000, 0.000000, 1.000000, 615.300018, 1557623517.974920, 2.000000, 4.000000, 4.000000, 4.000000, 4.000000
0.000000, 0.000000, 2314.871826, 3487.692139, 4414.358887, 3481.538330, 3096.410156, 500.000000, 8365.000000, 8362.000000, 0.000000, 0.000000, 0.000000, 1.000000, 623.100037, 1557623517.982720, 2.000000, 4.000000, 4.000000, 4.000000, 4.000000
1.000000, 0.000000, 2275.384521, 3488.717773, 4429.743652, 3497.948730, 3104.615234, 500.000000, 8362.000000, 8365.000000, 0.000000, 0.000000, 0.000000, 1.000000, 631.100037, 1557623517.990720, 2.000000, 4.000000, 4.000000, 4.000000, 4.000000
2.000000, 0.000000, 2270.769287, 3514.871826, 4461.538574, 3508.205078, 3149.230713, 16156.000000, 8358.000000, 8347.000000, 0.000000, 0.000000, 0.000000, 1.000000, 638.900024, 1557623517.998520, 4.000000, 4.000000, 4.000000, 4.000000, 4.000000
3.000000, 0.000000, 2272.820557, 3504.102539, 4417.948730, 3480.000000, 3116.410156, 500.000000, 8342.000000, 8318.000000, 0.000000, 0.000000, 0.000000, 1.000000, 646.900024, 1557623518.006520, 4.000000, 4.000000, 4.000000, 4.000000, 4.000000
4.000000, 0.000000, 2310.256348, 3541.538330, 4398.461426, 3478.461426, 3102.563965, 16166.000000, 8338.000000, 8296.000000, 0.000000, 0.000000, 0.000000, 1.000000, 654.900024, 1557623518.014520, 4.000000, 4.000000, 4.000000, 4.000000, 4.000000
5.000000, 0.000000, 2422.051270, 3584.615234, 4388.717773, 3500.512695, 3132.820557, 500.000000, 8329.000000, 8270.000000, 0.000000, 0.000000, 0.000000, 1.000000, 662.700012, 1557623518.022320, 4.000000, 4.000000, 4.000000, 4.000000, 4.000000
6.000000, 0.000000, 2547.179443, 3573.333252, 4355.897461, 3471.794678, 3112.307617, 16266.000000, 8324.000000, 8273.000000, 0.000000, 0.000000, 0.000000, 1.000000, 670.500031, 1557623518.030120, 4.000000, 4.000000, 4.000000, 4.000000, 4.000000
7.000000, 0.000000, 2625.640869, 3601.538330, 4402.051270, 3455.384521, 3116.923096, 500.000000, 8322.000000, 8284.000000, 0.000000, 0.000000, 0.000000, 1.000000, 678.200012, 1557623518.037820, 4.000000, 4.000000, 4.000000, 4.000000, 4.000000
8.000000, 0.000000, 2688.205078, 3676.410156, 4431.794922, 3471.794678, 3166.153809, 500.000000, 8329.000000, 8282.000000, 0.000000, 0.000000, 0.000000, 1.000000, 686.000031, 1557623518.045620, 4.000000, 4.000000, 4.000000, 4.000000, 4.000000
9.000000, 0.000000, 2786.153809, 3717.435791, 4402.563965, 3476.410156, 3194.358887, 326.000000, 8323.000000, 8296.000000, 0.000000, 0.000000, 0.000000, 1.000000, 694.000031, 1557623518.053620, 4.000000, 4.000000, 4.000000, 4.000000, 4.000000
10.000000, 0.000000, 2901.025635, 3753.845947, 4382.563965, 3480.512695, 3253.333252, 500.000000, 8331.000000, 8316.000000, 0.000000, 0.000000, 0.000000, 1.000000, 702.000031, 1557623518.061620, 4.000000, 4.000000, 4.000000, 4.000000, 4.000000
11.000000, 0.000000, 3005.640869, 3788.717773, 4374.871582, 3464.615234, 3323.589600, 16213.000000, 8342.000000, 8315.000000, 0.000000, 0.000000, 0.000000, 1.000000, 710.000031, 1557623518.069620, 4.000000, 4.000000, 4.000000, 4.000000, 4.000000
12.000000, 0.000000, 3140.000000, 3804.615234, 4385.641113, 3446.153809, 3369.743408, 500.000000, 8350.000000, 8293.000000, 0.000000, 0.000000, 0.000000, 1.000000, 717.900024, 1557623518.077520, 4.000000, 4.000000, 4.000000, 4.000000, 4.000000
13.000000, 0.000000, 3293.846191, 3845.128174, 4372.307617, 3462.051270, 3419.487061, 500.000000, 8359.000000, 8253.000000, 0.000000, 0.000000, 0.000000, 1.000000, 725.700012, 1557623518.085320, 4.000000, 4.000000, 4.000000, 4.000000, 4.000000
14.000000, 0.000000, 3417.948730, 3903.076904, 4394.358887, 3475.897461, 3455.897461, 450.000000, 8354.000000, 8249.000000, 0.000000, 0.000000, 0.000000, 1.000000, 733.500031, 1557623518.093120, 4.000000, 4.000000, 4.000000, 4.000000, 4.000000
15.000000, 0.000000, 3493.845947, 3932.307617, 4435.384277, 3460.512695, 3464.102539, 16213.000000, 8353.000000, 8210.000000, 0.000000, 0.000000, 0.000000, 1.000000, 741.300018, 1557623518.100920, 4.000000, 4.000000, 4.000000, 4.000000, 4.000000
16.000000, 0.000000, 3534.358887, 3962.563965, 4342.051270, 3452.820313, 3455.384521, 0.000000, 8346.000000, 8184.000000, 0.000000, 0.000000, 0.000000, 1.000000, 749.000031, 1557623518.108620, 4.000000, 4.000000, 4.000000, 4.000000, 4.000000
17.000000, 0.000000, 3562.051270, 4004.615234, 4185.127930, 3464.102539, 3429.230713, 0.000000, 8342.000000, 8167.000000, 0.000000, 0.000000, 0.000000, 1.000000, 757.000031, 1557623518.116620, 4.000000, 4.000000, 4.000000, 4.000000, 4.000000
18.000000, 0.000000, 3534.871826, 3982.051270, 4081.538330, 3450.769043, 3381.538330, 0.000000, 8327.000000, 8139.000000, 0.000000, 0.000000, 0.000000, 1.000000, 765.000031, 1557623518.124620, 4.000000, 4.000000, 4.000000, 4.000000, 4.000000
19.000000, 0.000000, 3473.333252, 3956.923096, 4039.487061, 3408.205078, 3338.461426, 0.000000, 8300.000000, 8129.000000, 0.000000, 0.000000, 0.000000, 1.000000, 773.000031, 1557623518.132620, 4.000000, 4.000000, 4.000000, 4.000000, 4.000000
20.000000, 0.000000, 3471.281982, 4023.589600, 3976.923096, 3393.846191, 3336.410156, 0.000000, 8262.000000, 8122.000000, 0.000000, 0.000000, 0.000000, 1.000000, 781.000031, 1557623518.140620, 4.000000, 4.000000, 4.000000, 4.000000, 4.000000
21.000000, 0.000000, 3494.358887, 4076.923096, 3894.871582, 3432.307617, 3364.102539, 0.000000, 8246.000000, 8108.000000, 0.000000, 0.000000, 0.000000, 1.000000, 788.700012, 1557623518.148320, 4.000000, 4.000000, 4.000000, 4.000000, 4.000000
22.000000, 0.000000, 3462.051270, 4063.076904, 3882.563965, 3440.000000, 3361.538330, 0.000000, 8218.000000, 8097.000000, 0.000000, 0.000000, 0.000000, 1.000000, 796.500031, 1557623518.156120, 4.000000, 4.000000, 4.000000, 4.000000, 4.000000
23.000000, 0.000000, 3435.384521, 4050.256348, 3862.051270, 3395.384521, 3334.871826, 0.000000, 8202.000000, 8109.000000, 0.000000, 0.000000, 0.000000, 1.000000, 804.300018, 1557623518.163920, 4.000000, 4.000000, 4.000000, 4.000000, 4.000000
24.000000, 0.000000, 3426.153809, 4030.256348, 3828.205078, 3360.512695, 3306.153809, 0.000000, 8169.000000, 8106.000000, 0.000000, 0.000000, 0.000000, 1.000000, 812.200012, 1557623518.171820, 4.000000, 4.000000, 4.000000, 4.000000, 4.000000
25.000000, 0.000000, 3383.076904, 3970.769043, 3820.000000, 3318.974365, 3256.410156, 0.000000, 8161.000000, 8099.000000, 0.000000, 0.000000, 0.000000, 1.000000, 820.100037, 1557623518.179720, 4.000000, 4.000000, 4.000000, 4.000000, 4.000000
26.000000, 0.000000, 3385.128174, 3957.948730, 3822.563965, 3298.974365, 3264.615234, 0.000000, 8144.000000, 8104.000000, 0.000000, 0.000000, 0.000000, 1.000000, 828.000000, 1557623518.187620, 4.000000, 4.000000, 4.000000, 4.000000, 4.000000
27.000000, 0.000000, 3452.820313, 4023.589600, 3859.487061, 3358.461426, 3367.179443, 0.000000, 8139.000000, 8119.000000, 0.000000, 0.000000, 0.000000, 1.000000, 836.000000, 1557623518.195620, 4.000000, 4.000000, 4.000000, 4.000000, 4.000000
28.000000, 0.000000, 3494.358887, 4053.845947, 3866.153809, 3418.461426, 3452.307617, 0.000000, 8110.000000, 8139.000000, 0.000000, 0.000000, 0.000000, 1.000000, 844.000000, 1557623518.203620, 4.000000, 4.000000, 4.000000, 4.000000, 4.000000
29.000000, 0.000000, 3486.666504, 4011.281982, 3844.615234, 3406.153809, 3455.897461, 0.000000, 8097.000000, 8133.000000, 0.000000, 0.000000, 0.000000, 1.000000, 852.000000, 1557623518.211620, 4.000000, 4.000000, 4.000000, 4.000000, 4.000000
30.000000, 0.000000, 3499.487061, 3982.563965, 3845.128174, 3386.153809, 3429.230713, 0.000000, 8085.000000, 8152.000000, 0.000000, 0.000000, 0.000000, 1.000000, 859.800049, 1557623518.219420, 4.000000, 4.000000, 4.000000, 4.000000, 4.000000
31.000000, 0.000000, 3536.410156, 3991.794678, 3851.794678, 3397.435791, 3434.358887, 0.000000, 8052.000000, 8165.000000, 0.000000, 0.000000, 0.000000, 1.000000, 867.500000, 1557623518.227120, 4.000000, 4.000000, 4.000000, 4.000000, 4.000000
32.000000, 0.000000, 3499.487061, 3967.179443, 3853.845947, 3376.410156, 3438.461426, 0.000000, 8026.000000, 8180.000000, 0.000000, 0.000000, 0.000000, 1.000000, 875.300049, 1557623518.234920, 4.000000, 4.000000, 4.000000, 4.000000, 4.000000
33.000000, 0.000000, 3414.871826, 3910.256348, 3831.281982, 3320.000000, 3401.025635, 0.000000, 8018.000000, 8213.000000, 0.000000, 0.000000, 0.000000, 1.000000, 883.200012, 1557623518.242820, 4.000000, 4.000000, 4.000000, 4.000000, 4.000000
34.000000, 0.000000, 3413.846191, 3913.333252, 3838.974365, 3324.102539, 3409.743408, 0.000000, 8013.000000, 8228.000000, 0.000000, 0.000000, 0.000000, 1.000000, 891.100037, 1557623518.250720, 4.000000, 4.000000, 4.000000, 4.000000, 4.000000
35.000000, 0.000000, 3469.743408, 3946.153809, 3857.948730, 3349.230713, 3462.563965, 0.000000, 7995.000000, 8259.000000, 0.000000, 0.000000, 0.000000, 1.000000, 899.000000, 1557623518.258620, 4.000000, 4.000000, 4.000000, 4.000000, 4.000000
36.000000, 0.000000, 3451.281982, 3875.384521, 3828.205078, 3282.563965, 3409.230713, 0.000000, 7986.000000, 8289.000000, 0.000000, 0.000000, 0.000000, 1.000000, 907.000000, 1557623518.266620, 4.000000, 4.000000, 4.000000, 4.000000, 4.000000
37.000000, 0.000000, 3423.076904, 3809.743408, 3838.974365, 3250.769043, 3377.948730, 0.000000, 7967.000000, 8300.000000, 0.000000, 0.000000, 0.000000, 1.000000, 915.000000, 1557623518.274620, 4.000000, 4.000000, 4.000000, 4.000000, 4.000000
38.000000, 0.000000, 3468.205078, 3874.871582, 3881.025635, 3343.076904, 3501.025635, 0.000000, 7962.000000, 8298.000000, 0.000000, 0.000000, 0.000000, 1.000000, 922.800049, 1557623518.282420, 4.000000, 4.000000, 4.000000, 4.000000, 4.000000
39.000000, 0.000000, 3488.205078, 3909.743408, 3881.538330, 3378.974365, 3553.333252, 0.000000, 7938.000000, 8290.000000, 0.000000, 0.000000, 0.000000, 1.000000, 930.600037, 1557623518.290220, 4.000000, 4.000000, 4.000000, 4.000000, 4.000000
40.000000, 0.000000, 3458.974365, 3842.563965, 3861.538330, 3330.256348, 3488.205078, 0.000000, 7918.000000, 8290.000000, 0.000000, 0.000000, 0.000000, 1.000000, 938.300049, 1557623518.297920, 4.000000, 4.000000, 4.000000, 4.000000, 4.000000
41.000000, 0.000000, 3451.281982, 3843.076904, 3854.358887, 3338.461426, 3504.615234, 0.000000, 7883.000000, 8257.000000, 0.000000, 0.000000, 0.000000, 1.000000, 946.200012, 1557623518.305820, 4.000000, 4.000000, 4.000000, 4.000000, 4.000000
42.000000, 0.000000, 3440.000000, 3886.153809, 3877.948730, 3359.487061, 3531.794678, 0.000000, 7865.000000, 8240.000000, 0.000000, 0.000000, 0.000000, 1.000000, 954.200012, 1557623518.313820, 4.000000, 4.000000, 4.000000, 4.000000, 4.000000
43.000000, 0.000000, 3420.000000, 3840.512695, 3889.230713, 3318.461426, 3465.640869, 0.000000, 7791.000000, 8223.000000, 0.000000, 0.000000, 0.000000, 1.000000, 962.200012, 1557623518.321820, 4.000000, 4.000000, 4.000000, 4.000000, 4.000000
44.000000, 0.000000, 3457.948730, 3809.230713, 3886.666504, 3299.487061, 3448.205078, 0.000000, 7750.000000, 8217.000000, 0.000000, 0.000000, 0.000000, 1.000000, 970.000000, 1557623518.329620, 4.000000, 4.000000, 4.000000, 4.000000, 4.000000
45.000000, 0.000000, 3490.256348, 3835.897461, 3890.769043, 3309.230713, 3486.666504, 0.000000, 7707.000000, 8216.000000, 0.000000, 0.000000, 0.000000, 1.000000, 977.900024, 1557623518.337520, 4.000000, 4.000000, 4.000000, 4.000000, 4.000000
46.000000, 0.000000, 3442.051270, 3817.948730, 3883.589600, 3282.051270, 3467.179443, 0.000000, 7620.000000, 8228.000000, 0.000000, 0.000000, 0.000000, 1.000000, 985.700012, 1557623518.345320, 4.000000, 4.000000, 4.000000, 4.000000, 4.000000
47.000000, 0.000000, 3395.384521, 3770.769043, 3893.333252, 3240.512695, 3420.512695, 0.000000, 7569.000000, 8241.000000, 0.000000, 0.000000, 0.000000, 1.000000, 993.500000, 1557623518.353120, 4.000000, 4.000000, 4.000000, 4.000000, 4.000000
48.000000, 0.000000, 3396.410156, 3757.435791, 3897.948730, 3229.230713, 3394.358887, 0.000000, 7481.000000, 8300.000000, 0.000000, 0.000000, 0.000000, 2.000000, 1.300049, 1557623518.360920, 4.000000, 4.000000, 4.000000, 4.000000, 4.000000
49.000000, 0.000000, 3392.820313, 3759.487061, 3901.025635, 3215.897461, 3365.640869, 0.000000, 7427.000000, 8353.000000, 0.000000, 0.000000, 0.000000, 2.000000, 9.000000, 1557623518.368620, 4.000000, 4.000000, 4.000000, 4.000000, 4.000000
50.000000, 0.000000, 3380.000000, 3735.897461, 3929.743408, 3180.512695, 3329.230713, 0.000000, 7340.000000, 8453.000000, 0.000000, 0.000000, 0.000000, 2.000000, 17.000000, 1557623518.376620, 4.000000, 4.000000, 4.000000, 4.000000, 4.000000
51.000000, 0.000000, 3416.410156, 3728.717773, 3929.743408, 3188.717773, 3317.948730, 0.000000, 7304.000000, 8487.000000, 0.000000, 0.000000, 0.000000, 2.000000, 25.000000, 1557623518.384620, 4.000000, 4.000000, 4.000000, 4.000000, 4.000000
52.000000, 0.000000, 3501.538330, 3774.871582, 3932.820313, 3252.820313, 3336.410156, 0.000000, 7258.000000, 8568.000000, 0.000000, 0.000000, 0.000000, 2.000000, 32.900024, 1557623518.392520, 4.000000, 4.000000, 4.000000, 4.000000, 4.000000
53.000000, 0.000000, 3536.410156, 3796.410156, 3942.563965, 3257.435791, 3351.281982, 0.000000, 7253.000000, 8622.000000, 0.000000, 0.000000, 0.000000, 2.000000, 40.900024, 1557623518.400520, 4.000000, 4.000000, 4.000000, 4.000000, 4.000000
54.000000, 0.000000, 3526.153809, 3791.281982, 3936.410156, 3224.102539, 3367.179443, 0.000000, 7303.000000, 8717.000000, 0.000000, 0.000000, 0.000000, 2.000000, 48.600037, 1557623518.408220, 4.000000, 4.000000, 4.000000, 4.000000, 4.000000
55.000000, 0.000000, 3541.538330, 3803.589600, 3938.461426, 3240.512695, 3387.179443, 0.000000, 7348.000000, 8747.000000, 0.000000, 0.000000, 0.000000, 2.000000, 56.400024, 1557623518.416020, 4.000000, 4.000000, 4.000000, 4.000000, 4.000000
56.000000, 0.000000, 3531.281982, 3789.230713, 3942.051270, 3231.281982, 3375.384521, 0.000000, 7456.000000, 8783.000000, 0.000000, 0.000000, 0.000000, 2.000000, 64.200012, 1557623518.423820, 4.000000, 4.000000, 4.000000, 4.000000, 4.000000
57.000000, 0.000000, 3516.410156, 3780.512695, 3978.461426, 3216.410156, 3376.923096, 0.000000, 7525.000000, 8789.000000, 0.000000, 0.000000, 0.000000, 2.000000, 72.000000, 1557623518.431620, 4.000000, 4.000000, 4.000000, 4.000000, 4.000000
58.000000, 0.000000, 3576.923096, 3857.435791, 4008.717773, 3281.538330, 3447.179443, 0.000000, 7681.000000, 8754.000000, 0.000000, 0.000000, 0.000000, 2.000000, 80.000000, 1557623518.439620, 4.000000, 4.000000, 4.000000, 4.000000, 4.000000
59.000000, 0.000000, 3611.794678, 3913.333252, 4005.128174, 3316.410156, 3498.974365, 0.000000, 7758.000000, 8732.000000, 0.000000, 0.000000, 0.000000, 2.000000, 87.900024, 1557623518.447520, 4.000000, 4.000000, 4.000000, 4.000000, 4.000000
60.000000, 0.000000, 3556.410156, 3885.128174, 4017.948730, 3263.076904, 3485.640869, 0.000000, 7836.000000, 8707.000000, 0.000000, 0.000000, 0.000000, 2.000000, 95.900024, 1557623518.455520, 4.000000, 4.000000, 4.000000, 4.000000, 4.000000
61.000000, 0.000000, 3548.717773, 3880.000000, 4015.897217, 3237.948730, 3478.974365, 0.000000, 7963.000000, 8686.000000, 0.000000, 0.000000, 0.000000, 2.000000, 103.900024, 1557623518.463520, 4.000000, 4.000000, 4.000000, 4.000000, 4.000000
62.000000, 0.000000, 3597.435791, 3877.948730, 4002.051270, 3247.692139, 3490.769043, 0.000000, 8014.000000, 8679.000000, 0.000000, 0.000000, 0.000000, 2.000000, 111.900024, 1557623518.471520, 4.000000, 4.000000, 4.000000, 4.000000, 4.000000
63.000000, 0.000000, 3576.410156, 3820.000000, 4003.589600, 3224.102539, 3475.897461, 0.000000, 8100.000000, 8633.000000, 0.000000, 0.000000, 0.000000, 2.000000, 119.600037, 1557623518.479220, 4.000000, 4.000000, 4.000000, 4.000000, 4.000000
64.000000, 0.000000, 3532.820313, 3782.563965, 4020.512695, 3198.461426, 3452.820313, 500.000000, 8139.000000, 8597.000000, 0.000000, 0.000000, 0.000000, 2.000000, 127.400024, 1557623518.487020, 4.000000, 4.000000, 4.000000, 4.000000, 4.000000
65.000000, 0.000000, 3541.538330, 3767.179443, 4041.025635, 3176.923096, 3427.179443, 500.000000, 8204.000000, 8530.000000, 0.000000, 0.000000, 0.000000, 2.000000, 135.200012, 1557623518.494820, 4.000000, 4.000000, 4.000000, 4.000000, 4.000000
66.000000, 0.000000, 3557.948730, 3727.179443, 4025.640869, 3143.589600, 3388.717773, 16204.000000, 8230.000000, 8513.000000, 0.000000, 0.000000, 0.000000, 2.000000, 143.200012, 1557623518.502820, 4.000000, 4.000000, 4.000000, 4.000000, 4.000000
67.000000, 0.000000, 3554.871826, 3704.615234, 4027.179443, 3120.512695, 3347.179443, 500.000000, 8290.000000, 8456.000000, 0.000000, 0.000000, 0.000000, 2.000000, 151.200012, 1557623518.510820, 4.000000, 4.000000, 4.000000, 4.000000, 4.000000
68.000000, 0.000000, 3562.051270, 3720.000000, 4052.820313, 3108.205078, 3316.923096, 16165.000000, 8324.000000, 8419.000000, 0.000000, 0.000000, 0.000000, 2.000000, 159.100037, 1557623518.518720, 4.000000, 4.000000, 4.000000, 4.000000, 4.000000
69.000000, 0.000000, 3552.820313, 3721.538330, 4053.845947, 3092.307617, 3301.025635, 500.000000, 8375.000000, 8369.000000, 0.000000, 0.000000, 0.000000, 2.000000, 167.000000, 1557623518.526620, 4.000000, 4.000000, 4.000000, 4.000000, 4.000000
70.000000, 0.000000, 3557.435791, 3723.589600, 4064.615234, 3097.435791, 3313.333252, 16082.000000, 8398.000000, 8362.000000, 0.000000, 0.000000, 0.000000, 2.000000, 175.000000, 1557623518.534620, 4.000000, 4.000000, 4.000000, 4.000000, 4.000000
71.000000, 0.000000, 3613.333252, 3738.461426, 4072.820313, 3116.923096, 3342.563965, 500.000000, 8436.000000, 8354.000000, 0.000000, 0.000000, 0.000000, 2.000000, 182.800049, 1557623518.542420, 4.000000, 4.000000, 4.000000, 4.000000, 4.000000
72.000000, 0.000000, 3612.307617, 3724.615234, 4072.307617, 3099.487061, 3327.179443, 500.000000, 8446.000000, 8362.000000, 0.000000, 0.000000, 0.000000, 2.000000, 190.600037, 1557623518.550220, 4.000000, 4.000000, 4.000000, 4.000000, 4.000000
73.000000, 0.000000, 3573.333252, 3701.025635, 4074.871582, 3067.179443, 3307.179443, 16063.000000, 8458.000000, 8403.000000, 0.000000, 0.000000, 0.000000, 2.000000, 198.300049, 1557623518.557920, 4.000000, 4.000000, 4.000000, 4.000000, 4.000000
74.000000, 0.000000, 3595.384521, 3713.845947, 4070.769043, 3062.051270, 3345.640869, 500.000000, 8462.000000, 8431.000000, 0.000000, 0.000000, 0.000000, 2.000000, 206.100037, 1557623518.565720, 4.000000, 4.000000, 4.000000, 4.000000, 4.000000
75.000000, 0.000000, 3618.461426, 3723.589600, 4082.563965, 3077.435791, 3381.538330, 16189.000000, 8458.000000, 8482.000000, 0.000000, 0.000000, 0.000000, 2.000000, 214.000000, 1557623518.573620, 4.000000, 4.000000, 4.000000, 4.000000, 4.000000
76.000000, 0.000000, 3596.923096, 3692.820313, 4077.948730, 3076.410156, 3370.256348, 500.000000, 8445.000000, 8511.000000, 0.000000, 0.000000, 0.000000, 2.000000, 222.000000, 1557623518.581620, 4.000000, 4.000000, 4.000000, 4.000000, 4.000000
77.000000, 0.000000, 3598.461426, 3684.102539, 4081.025635, 3054.871826, 3386.153809, 500.000000, 8431.000000, 8512.000000, 0.000000, 0.000000, 0.000000, 2.000000, 229.900024, 1557623518.589520, 4.000000, 4.000000, 4.000000, 4.000000, 4.000000
78.000000, 0.000000, 3623.589600, 3701.538330, 4109.743652, 3065.128174, 3454.358887, 450.000000, 8397.000000, 8504.000000, 0.000000, 0.000000, 0.000000, 2.000000, 237.900024, 1557623518.597520, 4.000000, 4.000000, 4.000000, 4.000000, 4.000000
79.000000, 0.000000, 3622.563965, 3672.307617, 4108.717773, 3102.563965, 3487.692139, 16189.000000, 8385.000000, 8506.000000, 0.000000, 0.000000, 0.000000, 2.000000, 245.900024, 1557623518.605520, 4.000000, 4.000000, 4.000000, 4.000000, 4.000000
80.000000, 0.000000, 3612.307617, 3650.769043, 4110.769043, 3110.769043, 3485.128174, 450.000000, 8364.000000, 8504.000000, 0.000000, 0.000000, 0.000000, 2.000000, 253.700012, 1557623518.613320, 4.000000, 4.000000, 4.000000, 4.000000, 4.000000
81.000000, 0.000000, 3607.179443, 3681.538330, 4115.897461, 3089.230713, 3496.410156, 450.000000, 8355.000000, 8501.000000, 0.000000, 0.000000, 0.000000, 2.000000, 261.500000, 1557623518.621120, 4.000000, 4.000000, 4.000000, 4.000000, 4.000000
82.000000, 0.000000, 3606.153809, 3685.128174, 4109.743652, 3097.948730, 3511.794678, 450.000000, 8342.000000, 8514.000000, 0.000000, 0.000000, 0.000000, 2.000000, 269.200012, 1557623518.628820, 4.000000, 4.000000, 4.000000, 4.000000, 4.000000
83.000000, 0.000000, 3595.897461, 3674.358887, 4122.051270, 3131.281982, 3540.000000, 16189.000000, 8343.000000, 8528.000000, 0.000000, 0.000000, 0.000000, 2.000000, 277.000000, 1557623518.636620, 4.000000, 4.000000, 4.000000, 4.000000, 4.000000
84.000000, 0.000000, 3592.820313, 3711.794678, 4134.871582, 3153.846191, 3596.923096, 450.000000, 8332.000000, 8537.000000, 0.000000, 0.000000, 0.000000, 2.000000, 285.000000, 1557623518.644620, 4.000000, 4.000000, 4.000000, 4.000000, 4.000000
85.000000, 0.000000, 3613.333252, 3730.769043, 4146.153809, 3161.538330, 3635.384521, 450.000000, 8333.000000, 8534.000000, 0.000000, 0.000000, 0.000000, 2.000000, 293.000000, 1557623518.652620, 4.000000, 4.000000, 4.000000, 4.000000, 4.000000
86.000000, 0.000000, 3609.230713, 3702.051270, 4129.743652, 3158.974365, 3627.179443, 450.000000, 8341.000000, 8539.000000, 0.000000, 0.000000, 0.000000, 2.000000, 301.000000, 1557623518.660620, 4.000000, 4.000000, 4.000000, 4.000000, 4.000000
87.000000, 0.000000, 3586.153809, 3690.256348, 4110.256348, 3167.179443, 3626.666504, 16189.000000, 8344.000000, 8536.000000, 0.000000, 0.000000, 0.000000, 2.000000, 308.900024, 1557623518.668520, 4.000000, 4.000000, 4.000000, 4.000000, 4.000000
88.000000, 0.000000, 3572.307617, 3687.179443, 4134.358887, 3179.487061, 3649.230713, 450.000000, 8355.000000, 8499.000000, 0.000000, 0.000000, 0.000000, 2.000000, 316.700025, 1557623518.676320, 4.000000, 4.000000, 4.000000, 4.000000, 4.000000
89.000000, 0.000000, 3570.256348, 3707.692139, 4137.436035, 3174.871826, 3662.563965, 450.000000, 8352.000000, 8471.000000, 0.000000, 0.000000, 0.000000, 2.000000, 324.500025, 1557623518.684120, 4.000000, 4.000000, 4.000000, 4.000000, 4.000000
90.000000, 0.000000, 3609.743408, 3763.589600, 4135.384277, 3174.358887, 3686.153809, 450.000000, 8349.000000, 8388.000000, 0.000000, 0.000000, 0.000000, 2.000000, 332.300024, 1557623518.691920, 4.000000, 4.000000, 4.000000, 4.000000, 4.000000
91.000000, 0.000000, 3660.000000, 3775.897461, 4141.538574, 3187.179443, 3710.769043, 16189.000000, 8338.000000, 8330.000000, 0.000000, 0.000000, 0.000000, 2.000000, 340.000023, 1557623518.699620, 4.000000, 4.000000, 4.000000, 4.000000, 4.000000
92.000000, 0.000000, 3661.025635, 3748.205078, 4129.743652, 3205.128174, 3722.563965, 450.000000, 8326.000000, 8298.000000, 0.000000, 0.000000, 0.000000, 2.000000, 348.000023, 1557623518.707620, 4.000000, 4.000000, 4.000000, 4.000000, 4.000000
93.000000, 0.000000, 3643.589600, 3749.230713, 4136.410156, 3213.846191, 3736.410156, 450.000000, 8300.000000, 8256.000000, 0.000000, 0.000000, 0.000000, 2.000000, 356.000023, 1557623518.715620, 4.000000, 4.000000, 4.000000, 4.000000, 4.000000
94.000000, 0.000000, 3635.897461, 3761.025635, 4144.102539, 3195.384521, 3741.025635, 450.000000, 8285.000000, 8248.000000, 0.000000, 0.000000, 0.000000, 2.000000, 364.000023, 1557623518.723620, 4.000000, 4.000000, 4.000000, 4.000000, 4.000000
95.000000, 0.000000, 3616.410156, 3740.512695, 4150.769043, 3193.333252, 3736.923096, 16189.000000, 8255.000000, 8264.000000, 0.000000, 0.000000, 0.000000, 2.000000, 372.000023, 1557623518.731620, 4.000000, 4.000000, 4.000000, 4.000000, 4.000000
96.000000, 0.000000, 3611.794678, 3733.845947, 4156.410156, 3223.076904, 3737.948730, 450.000000, 8239.000000, 8283.000000, 0.000000, 0.000000, 0.000000, 2.000000, 379.700027, 1557623518.739320, 4.000000, 4.000000, 4.000000, 4.000000, 4.000000
97.000000, 0.000000, 3620.512695, 3742.051270, 4154.358887, 3230.769043, 3745.640869, 450.000000, 8221.000000, 8319.000000, 0.000000, 0.000000, 0.000000, 2.000000, 387.500023, 1557623518.747120, 4.000000, 4.000000, 4.000000, 4.000000, 4.000000
98.000000, 0.000000, 3606.666504, 3704.615234, 4155.897461, 3216.410156, 3732.820313, 450.000000, 8213.000000, 8335.000000, 0.000000, 0.000000, 0.000000, 2.000000, 395.300026, 1557623518.754920, 4.000000, 4.000000, 4.000000, 4.000000, 4.000000
99.000000, 0.000000, 3624.102539, 3698.974365, 4146.666504, 3215.384521, 3741.025635, 16189.000000, 8213.000000, 8393.000000, 0.000000, 0.000000, 0.000000, 2.000000, 403.100021, 1557623518.762720, 4.000000, 4.000000, 4.000000, 4.000000, 4.000000
100.000000, 0.000000, 3668.717773, 3737.435791, 4150.256348, 3218.974365, 3780.512695, 450.000000, 8206.000000, 8430.000000, 0.000000, 0.000000, 0.000000, 2.000000, 411.100021, 1557623518.770720, 4.000000, 4.000000, 4.000000, 4.000000, 4.000000
101.000000, 0.000000, 3660.512695, 3746.666504, 4150.769043, 3205.640869, 3772.307617, 450.000000, 8184.000000, 8492.000000, 0.000000, 0.000000, 0.000000, 2.000000, 419.000023, 1557623518.778620, 4.000000, 4.000000, 4.000000, 4.000000, 4.000000
102.000000, 0.000000, 3637.435791, 3748.717773, 4136.410156, 3193.333252, 3745.640869, 450.000000, 8174.000000, 8526.000000, 0.000000, 0.000000, 0.000000, 2.000000, 427.000023, 1557623518.786620, 4.000000, 4.000000, 4.000000, 4.000000, 4.000000
103.000000, 0.000000, 3655.897461, 3747.692139, 4155.897461, 3193.333252, 3763.076904, 16189.000000, 8166.000000, 8584.000000, 0.000000, 0.000000, 0.000000, 2.000000, 435.000023, 1557623518.794620, 4.000000, 4.000000, 4.000000, 4.000000, 4.000000
104.000000, 0.000000, 3676.410156, 3731.794678, 4165.641113, 3201.538330, 3802.051270, 450.000000, 8163.000000, 8609.000000, 0.000000, 0.000000, 0.000000, 2.000000, 443.000031, 1557623518.802620, 4.000000, 4.000000, 4.000000, 4.000000, 4.000000
105.000000, 0.000000, 3671.794678, 3720.000000, 4155.384277, 3197.435791, 3807.179443, 450.000000, 8152.000000, 8676.000000, 0.000000, 0.000000, 0.000000, 2.000000, 450.700027, 1557623518.810320, 4.000000, 4.000000, 4.000000, 4.000000, 4.000000
106.000000, 0.000000, 3664.615234, 3718.974365, 4154.871582, 3174.871826, 3788.717773, 450.000000, 8164.000000, 8720.000000, 0.000000, 0.000000, 0.000000, 2.000000, 458.500031, 1557623518.818120, 4.000000, 4.000000, 4.000000, 4.000000, 4.000000
107.000000, 0.000000, 3661.538330, 3717.948730, 4145.641113, 3177.435791, 3793.845947, 16189.000000, 8174.000000, 8736.000000, 0.000000, 0.000000, 0.000000, 2.000000, 466.300018, 1557623518.825920, 4.000000, 4.000000, 4.000000, 4.000000, 4.000000
108.000000, 0.000000, 3670.769043, 3715.897461, 4153.846191, 3205.128174, 3822.563965, 450.000000, 8204.000000, 8782.000000, 0.000000, 0.000000, 0.000000, 2.000000, 474.200027, 1557623518.833820, 4.000000, 4.000000, 4.000000, 4.000000, 4.000000
109.000000, 0.000000, 3688.717773, 3712.820313, 4163.076660, 3201.538330, 3845.640869, 450.000000, 8225.000000, 8796.000000, 0.000000, 0.000000, 0.000000, 2.000000, 482.200027, 1557623518.841820, 4.000000, 4.000000, 4.000000, 4.000000, 4.000000
110.000000, 0.000000, 3714.871582, 3732.820313, 4167.179199, 3186.153809, 3861.538330, 450.000000, 8286.000000, 8783.000000, 0.000000, 0.000000, 0.000000, 2.000000, 490.100021, 1557623518.849720, 4.000000, 4.000000, 4.000000, 4.000000, 4.000000
111.000000, 0.000000, 3748.717773, 3766.666504, 4168.717773, 3203.076904, 3895.897461, 16189.000000, 8321.000000, 8758.000000, 0.000000, 0.000000, 0.000000, 2.000000, 497.900024, 1557623518.857520, 4.000000, 4.000000, 4.000000, 4.000000, 4.000000
112.000000, 0.000000, 3748.717773, 3743.076904, 4144.615234, 3209.743408, 3909.743408, 450.000000, 8373.000000, 8734.000000, 0.000000, 0.000000, 0.000000, 2.000000, 505.900024, 1557623518.865520, 4.000000, 4.000000, 4.000000, 4.000000, 4.000000
113.000000, 0.000000, 3731.281982, 3706.666504, 4152.307617, 3187.179443, 3891.794678, 450.000000, 8392.000000, 8728.000000, 0.000000, 0.000000, 0.000000, 2.000000, 513.700027, 1557623518.873320, 4.000000, 4.000000, 4.000000, 4.000000, 4.000000
114.000000, 0.000000, 3727.692139, 3706.666504, 4171.794922, 3188.717773, 3900.000000, 450.000000, 8421.000000, 8720.000000, 0.000000, 0.000000, 0.000000, 2.000000, 521.500031, 1557623518.881120, 4.000000, 4.000000, 4.000000, 4.000000, 4.000000
115.000000, 0.000000, 3726.666504, 3704.102539, 4166.666504, 3206.153809, 3915.384521, 16189.000000, 8412.000000, 8720.000000, 0.000000, 0.000000, 0.000000, 2.000000, 529.200027, 1557623518.888820, 4.000000, 4.000000, 4.000000, 4.000000, 4.000000
116.000000, 0.000000, 3724.102539, 3705.640869, 4168.717773, 3195.897461, 3911.794678, 450.000000, 8363.000000, 8704.000000, 0.000000, 0.000000, 0.000000, 2.000000, 537.000031, 1557623518.896620, 4.000000, 4.000000, 4.000000, 4.000000, 4.000000
117.000000, 0.000000, 3734.871582, 3716.410156, 4163.076660, 3189.230713, 3914.871582, 450.000000, 8332.000000, 8675.000000, 0.000000, 0.000000, 0.000000, 2.000000, 545.000031, 1557623518.904620, 4.000000, 4.000000, 4.000000, 4.000000, 4.000000
118.000000, 0.000000, 3752.307617, 3698.461426, 4157.948730, 3205.128174, 3919.487061, 450.000000, 8253.000000, 8611.000000, 0.000000, 0.000000, 0.000000, 2.000000, 553.000031, 1557623518.912620, 4.000000, 4.000000, 4.000000, 4.000000, 4.000000
119.000000, 0.000000, 3754.358887, 3683.589600, 4158.974121, 3226.666504, 3928.205078, 16189.000000, 8218.000000, 8595.000000, 0.000000, 0.000000, 0.000000, 2.000000, 560.900024, 1557623518.920520, 4.000000, 4.000000, 4.000000, 4.000000, 4.000000
120.000000, 0.000000, 3736.410156, 3695.897461, 4165.127930, 3241.025635, 3957.948730, 450.000000, 8159.000000, 8558.000000, 0.000000, 0.000000, 0.000000, 2.000000, 568.900024, 1557623518.928520, 4.000000, 4.000000, 4.000000, 4.000000, 4.000000
121.000000, 0.000000, 3707.179443, 3695.897461, 4180.000000, 3242.563965, 3970.769043, 450.000000, 8137.000000, 8533.000000, 0.000000, 0.000000, 0.000000, 2.000000, 576.700012, 1557623518.936320, 4.000000, 4.000000, 4.000000, 4.000000, 4.000000
122.000000, 0.000000, 3712.307617, 3711.794678, 4173.846191, 3251.281982, 3978.461426, 450.000000, 8105.000000, 8541.000000, 0.000000, 0.000000, 0.000000, 2.000000, 584.500031, 1557623518.944120, 4.000000, 4.000000, 4.000000, 4.000000, 4.000000
123.000000, 0.000000, 3738.974365, 3721.025635, 4170.256348, 3266.666504, 4018.461426, 16189.000000, 8067.000000, 8534.000000, 0.000000, 0.000000, 0.000000, 2.000000, 592.300018, 1557623518.951920, 4.000000, 4.000000, 4.000000, 4.000000, 4.000000
124.000000, 0.000000, 3737.435791, 3686.666504, 4173.333008, 3269.743408, 4050.769043, 450.000000, 8061.000000, 8510.000000, 0.000000, 0.000000, 0.000000, 2.000000, 600.100037, 1557623518.959720, 4.000000, 4.000000, 4.000000, 4.000000, 4.000000
125.000000, 0.000000, 3728.717773, 3694.871826, 4177.436035, 3271.794678, 4054.358887, 450.000000, 8046.000000, 8458.000000, 0.000000, 0.000000, 0.000000, 2.000000, 608.000031, 1557623518.967620, 4.000000, 4.000000, 4.000000, 4.000000, 4.000000
126.000000, 0.000000, 3723.076904, 3737.435791, 4189.743652, 3266.666504, 4052.307617, 450.000000, 8036.000000, 8443.000000, 0.000000, 0.000000, 0.000000, 2.000000, 615.900024, 1557623518.975520, 4.000000, 4.000000, 4.000000, 4.000000, 4.000000
127.000000, 0.000000, 3704.615234, 3707.179443, 4171.281738, 3258.461426, 4050.256348, 16189.000000, 8031.000000, 8398.000000, 0.000000, 0.000000, 0.000000, 2.000000, 623.900024, 1557623518.983520, 4.000000, 4.000000, 4.000000, 4.000000, 4.000000
128.000000, 0.000000, 3691.281982, 3652.307617, 4155.384277, 3282.051270, 4048.717773, 500.000000, 8024.000000, 8383.000000, 0.000000, 0.000000, 0.000000, 2.000000, 631.900024, 1557623518.991520, 4.000000, 4.000000, 4.000000, 4.000000, 4.000000
0.000000, 0.000000, 3713.333252, 3679.487061, 4156.410156, 3310.256348, 4064.615234, 500.000000, 8015.000000, 8373.000000, 0.000000, 0.000000, 0.000000, 2.000000, 639.600037, 1557623518.999220, 4.000000, 4.000000, 4.000000, 4.000000, 4.000000
1.000000, 0.000000, 3731.794678, 3716.410156, 4155.384277, 3296.923096, 4102.563965, 500.000000, 8005.000000, 8361.000000, 0.000000, 0.000000, 0.000000, 2.000000, 647.400024, 1557623519.007020, 4.000000, 4.000000, 4.000000, 4.000000, 4.000000
2.000000, 0.000000, 3700.512695, 3692.820313, 4170.769043, 3282.051270, 4125.641113, 16219.000000, 8001.000000, 8338.000000, 0.000000, 0.000000, 0.000000, 2.000000, 655.200012, 1557623519.014820, 4.000000, 4.000000, 4.000000, 4.000000, 4.000000
3.000000, 0.000000, 3671.794678, 3657.948730, 4162.563965, 3285.640869, 4111.281738, 500.000000, 7991.000000, 8335.000000, 0.000000, 0.000000, 0.000000, 2.000000, 663.200012, 1557623519.022820, 4.000000, 4.000000, 4.000000, 4.000000, 4.000000
4.000000, 0.000000, 3682.563965, 3665.640869, 4155.384277, 3276.410156, 4105.127930, 16195.000000, 7978.000000, 8322.000000, 0.000000, 0.000000, 0.000000, 2.000000, 671.000031, 1557623519.030620, 4.000000, 4.000000, 4.000000, 4.000000, 4.000000
5.000000, 0.000000, 3684.102539, 3696.410156, 4170.256348, 3280.000000, 4130.256348, 500.000000, 7968.000000, 8310.000000, 0.000000, 0.000000, 0.000000, 2.000000, 679.000031, 1557623519.038620, 4.000000, 4.000000, 4.000000, 4.000000, 4.000000
6.000000, 0.000000, 3668.717773, 3698.974365, 4165.127930, 3293.333252, 4138.974121, 16135.000000, 7961.000000, 8306.000000, 0.000000, 0.000000, 0.000000, 2.000000, 687.000031, 1557623519.046620, 4.000000, 4.000000, 4.000000, 4.000000, 4.000000
7.000000, 0.000000, 3681.025635, 3678.461426, 4167.692383, 3281.025635, 4132.307617, 500.000000, 7958.000000, 8305.000000, 0.000000, 0.000000, 0.000000, 2.000000, 695.000031, 1557623519.054620, 4.000000, 4.000000, 4.000000, 4.000000, 4.000000
8.000000, 0.000000, 3698.974365, 3664.102539, 4173.846191, 3269.743408, 4137.436035, 500.000000, 7958.000000, 8283.000000, 0.000000, 0.000000, 0.000000, 2.000000, 703.000031, 1557623519.062620, 4.000000, 4.000000, 4.000000, 4.000000, 4.000000
9.000000, 0.000000, 3704.615234, 3670.256348, 4173.333008, 3284.102539, 4142.563965, 323.000000, 7954.000000, 8276.000000, 0.000000, 0.000000, 0.000000, 2.000000, 710.700012, 1557623519.070320, 4.000000, 4.000000, 4.000000, 4.000000, 4.000000
10.000000, 0.000000, 3726.153809, 3671.281982, 4168.205078, 3291.794678, 4137.436035, 500.000000, 7953.000000, 8278.000000, 0.000000, 0.000000, 0.000000, 2.000000, 718.500031, 1557623519.078120, 4.000000, 4.000000, 4.000000, 4.000000, 4.000000
11.000000, 0.000000, 3732.820313, 3664.102539, 4154.871582, 3278.461426, 4136.922852, 16166.000000, 7954.000000, 8265.000000, 0.000000, 0.000000, 0.000000, 2.000000, 726.300018, 1557623519.085920, 4.000000, 4.000000, 4.000000, 4.000000, 4.000000
12.000000, 0.000000, 3705.640869, 3686.153809, 4160.512695, 3285.640869, 4158.461426, 500.000000, 7957.000000, 8260.000000, 0.000000, 0.000000, 0.000000, 2.000000, 734.100037, 1557623519.093720, 4.000000, 4.000000, 4.000000, 4.000000, 4.000000
13.000000, 0.000000, 3694.358887, 3690.256348, 4158.974121, 3298.461426, 4174.358887, 500.000000, 7958.000000, 8251.000000, 0.000000, 0.000000, 0.000000, 2.000000, 742.100037, 1557623519.101720, 4.000000, 4.000000, 4.000000, 4.000000, 4.000000
14.000000, 0.000000, 3701.538330, 3660.000000, 4161.025391, 3283.589600, 4160.512695, 450.000000, 7972.000000, 8239.000000, 0.000000, 0.000000, 0.000000, 2.000000, 750.000031, 1557623519.109620, 4.000000, 4.000000, 4.000000, 4.000000, 4.000000
15.000000, 0.000000, 3711.281982, 3672.307617, 4183.076660, 3271.281982, 4164.102539, 16166.000000, 8005.000000, 8233.000000, 0.000000, 0.000000, 0.000000, 2.000000, 758.000031, 1557623519.117620, 4.000000, 4.000000, 4.000000, 4.000000, 4.000000
16.000000, 0.000000, 3724.615234, 3703.589600, 4174.871582, 3277.435791, 4195.384277, 0.000000, 8026.000000, 8242.000000, 0.000000, 0.000000, 0.000000, 2.000000, 766.000031, 1557623519.125620, 4.000000, 4.000000, 4.000000, 4.000000, 4.000000
17.000000, 0.000000, 3731.281982, 3677.435791, 4165.641113, 3293.333252, 4211.281738, 0.000000, 8073.000000, 8243.000000, 0.000000, 0.000000, 0.000000, 2.000000, 774.000031, 1557623519.133620, 4.000000, 4.000000, 4.000000, 4.000000, 4.000000
18.000000, 0.000000, 3716.410156, 3645.640869, 4167.692383, 3299.487061, 4211.794922, 0.000000, 8105.000000, 8244.000000, 0.000000, 0.000000, 0.000000, 2.000000, 781.700012, 1557623519.141320, 4.000000, 4.000000, 4.000000, 4.000000, 4.000000
19.000000, 0.000000, 3707.692139, 3668.717773, 4176.922852, 3287.179443, 4217.436035, 0.000000, 8140.000000, 8253.000000, 0.000000, 0.000000, 0.000000, 2.000000, 789.500031, 1557623519.149120, 4.000000, 4.000000, 4.000000, 4.000000, 4.000000
20.000000, 0.000000, 3713.333252, 3683.589600, 4184.102539, 3267.692139, 4219.487305, 0.000000, 8156.000000, 8271.000000, 0.000000, 0.000000, 0.000000, 2.000000, 797.300018, 1557623519.156920, 4.000000, 4.000000, 4.000000, 4.000000, 4.000000
21.000000, 0.000000, 3705.128174, 3657.948730, 4158.461426, 3262.563965, 4210.769043, 0.000000, 8156.000000, 8289.000000, 0.000000, 0.000000, 0.000000, 2.000000, 805.100037, 1557623519.164720, 4.000000, 4.000000, 4.000000, 4.000000, 4.000000
22.000000, 0.000000, 3715.897461, 3660.512695, 4160.512695, 3279.487061, 4218.974121, 0.000000, 8160.000000, 8286.000000, 0.000000, 0.000000, 0.000000, 2.000000, 813.100037, 1557623519.172720, 4.000000, 4.000000, 4.000000, 4.000000, 4.000000
23.000000, 0.000000, 3744.615234, 3690.769043, 4188.205078, 3280.000000, 4256.922852, 0.000000, 8163.000000, 8307.000000, 0.000000, 0.000000, 0.000000, 2.000000, 821.000000, 1557623519.180620, 4.000000, 4.000000, 4.000000, 4.000000, 4.000000
24.000000, 0.000000, 3722.051270, 3664.615234, 4178.974121, 3248.717773, 4264.102539, 0.000000, 8167.000000, 8326.000000, 0.000000, 0.000000, 0.000000, 2.000000, 829.000000, 1557623519.188620, 4.000000, 4.000000, 4.000000, 4.000000, 4.000000
25.000000, 0.000000, 3679.487061, 3636.923096, 4164.102539, 3234.871826, 4249.230469, 0.000000, 8166.000000, 8332.000000, 0.000000, 0.000000, 0.000000, 2.000000, 837.000000, 1557623519.196620, 4.000000, 4.000000, 4.000000, 4.000000, 4.000000
26.000000, 0.000000, 3711.794678, 3679.487061, 4163.076660, 3252.307617, 4272.820313, 0.000000, 8168.000000, 8354.000000, 0.000000, 0.000000, 0.000000, 2.000000, 844.800049, 1557623519.204420, 4.000000, 4.000000, 4.000000, 4.000000, 4.000000
27.000000, 0.000000, 3753.333252, 3683.076904, 4175.384277, 3266.153809, 4297.948730, 0.000000, 8175.000000, 8365.000000, 0.000000, 0.000000, 0.000000, 2.000000, 852.600037, 1557623519.212220, 4.000000, 4.000000, 4.000000, 4.000000, 4.000000
28.000000, 0.000000, 3743.076904, 3636.923096, 4178.461426, 3281.025635, 4293.846191, 0.000000, 8181.000000, 8377.000000, 0.000000, 0.000000, 0.000000, 2.000000, 860.300049, 1557623519.219920, 4.000000, 4.000000, 4.000000, 4.000000, 4.000000
29.000000, 0.000000, 3744.102539, 3653.333252, 4174.871582, 3300.000000, 4311.281738, 0.000000, 8184.000000, 8389.000000, 0.000000, 0.000000, 0.000000, 2.000000, 868.300049, 1557623519.227920, 4.000000, 4.000000, 4.000000, 4.000000, 4.000000
30.000000, 0.000000, 3742.051270, 3682.051270, 4189.230469, 3280.512695, 4318.461426, 0.000000, 8202.000000, 8374.000000, 0.000000, 0.000000, 0.000000, 2.000000, 876.200012, 1557623519.235820, 4.000000, 4.000000, 4.000000, 4.000000, 4.000000
31.000000, 0.000000, 3735.897461, 3656.923096, 4179.487305, 3265.640869, 4290.256348, 0.000000, 8209.000000, 8355.000000, 0.000000, 0.000000, 0.000000, 2.000000, 884.200012, 1557623519.243820, 4.000000, 4.000000, 4.000000, 4.000000, 4.000000
32.000000, 0.000000, 3775.897461, 3645.128174, 4166.666504, 3301.538330, 4300.000000, 0.000000, 8208.000000, 8337.000000, 0.000000, 0.000000, 0.000000, 2.000000, 892.100037, 1557623519.251720, 4.000000, 4.000000, 4.000000, 4.000000, 4.000000
33.000000, 0.000000, 3791.281982, 3666.153809, 4169.743652, 3306.153809, 4331.794922, 0.000000, 8208.000000, 8342.000000, 0.000000, 0.000000, 0.000000, 2.000000, 900.000000, 1557623519.259620, 4.000000, 4.000000, 4.000000, 4.000000, 4.000000
34.000000, 0.000000, 3745.640869, 3658.461426, 4166.666504, 3282.563965, 4329.230469, 0.000000, 8201.000000, 8340.000000, 0.000000, 0.000000, 0.000000, 2.000000, 907.800049, 1557623519.267420, 4.000000, 4.000000, 4.000000, 4.000000, 4.000000
35.000000, 0.000000, 3744.102539, 3633.845947, 4168.205078, 3296.410156, 4316.410156, 0.000000, 8203.000000, 8334.000000, 0.000000, 0.000000, 0.000000, 2.000000, 915.600037, 1557623519.275220, 4.000000, 4.000000, 4.000000, 4.000000, 4.000000
36.000000, 0.000000, 3773.333252, 3628.205078, 4156.922852, 3295.384521, 4304.615234, 0.000000, 8207.000000, 8337.000000, 0.000000, 0.000000, 0.000000, 2.000000, 923.400024, 1557623519.283020, 4.000000, 4.000000, 4.000000, 4.000000, 4.000000
37.000000, 0.000000, 3730.256348, 3636.410156, 4154.358887, 3261.025635, 4283.076660, 0.000000, 8208.000000, 8347.000000, 0.000000, 0.000000, 0.000000, 2.000000, 931.200012, 1557623519.290820, 4.000000, 4.000000, 4.000000, 4.000000, 4.000000
38.000000, 0.000000, 3680.000000, 3647.179443, 4164.102539, 3274.871826, 4274.871582, 0.000000, 8214.000000, 8349.000000, 0.000000, 0.000000, 0.000000, 2.000000, 939.200012, 1557623519.298820, 4.000000, 4.000000, 4.000000, 4.000000, 4.000000
39.000000, 0.000000, 3681.025635, 3644.615234, 4158.974121, 3302.563965, 4283.076660, 0.000000, 8229.000000, 8371.000000, 0.000000, 0.000000, 0.000000, 2.000000, 947.100037, 1557623519.306720, 4.000000, 4.000000, 4.000000, 4.000000, 4.000000
40.000000, 0.000000, 3676.410156, 3637.435791, 4165.127930, 3284.615234, 4282.051270, 0.000000, 8237.000000, 8388.000000, 0.000000, 0.000000, 0.000000, 2.000000, 955.100037, 1557623519.314720, 4.000000, 4.000000, 4.000000, 4.000000, 4.000000
41.000000, 0.000000, 3661.025635, 3643.589600, 4163.589844, 3281.025635, 4273.333008, 0.000000, 8240.000000, 8422.000000, 0.000000, 0.000000, 0.000000, 2.000000, 963.100037, 1557623519.322720, 4.000000, 4.000000, 4.000000, 4.000000, 4.000000
42.000000, 0.000000, 3671.281982, 3640.000000, 4164.615234, 3297.948730, 4269.230469, 0.000000, 8244.000000, 8435.000000, 0.000000, 0.000000, 0.000000, 2.000000, 971.000000, 1557623519.330620, 4.000000, 4.000000, 4.000000, 4.000000, 4.000000
43.000000, 0.000000, 3680.512695, 3626.153809, 4176.410156, 3303.076904, 4266.666504, 0.000000, 8261.000000, 8449.000000, 0.000000, 0.000000, 0.000000, 2.000000, 978.800049, 1557623519.338420, 4.000000, 4.000000, 4.000000, 4.000000, 4.000000
44.000000, 0.000000, 3669.230713, 3626.666504, 4165.127930, 3308.717773, 4261.025391, 0.000000, 8268.000000, 8432.000000, 0.000000, 0.000000, 0.000000, 2.000000, 986.600037, 1557623519.346220, 4.000000, 4.000000, 4.000000, 4.000000, 4.000000
45.000000, 0.000000, 3666.666504, 3620.512695, 4163.076660, 3320.512695, 4260.000000, 0.000000, 8291.000000, 8408.000000, 0.000000, 0.000000, 0.000000, 2.000000, 994.400024, 1557623519.354020, 4.000000, 4.000000, 4.000000, 4.000000, 4.000000
46.000000, 0.000000, 3684.102539, 3612.307617, 4154.871582, 3320.512695, 4252.307617, 0.000000, 8294.000000, 8404.000000, 0.000000, 0.000000, 0.000000, 3.000000, 2.200012, 1557623519.361820, 4.000000, 4.000000, 4.000000, 4.000000, 4.000000
47.000000, 0.000000, 3684.102539, 3615.384521, 4130.256348, 3307.179443, 4227.179199, 0.000000, 8313.000000, 8389.000000, 0.000000, 0.000000, 0.000000, 3.000000, 10.000000, 1557623519.369620, 4.000000, 4.000000, 4.000000, 4.000000, 4.000000
48.000000, 0.000000, 3667.179443, 3616.410156, 4156.410156, 3308.205078, 4223.076660, 0.000000, 8327.000000, 8376.000000, 0.000000, 0.000000, 0.000000, 3.000000, 18.000000, 1557623519.377620, 4.000000, 4.000000, 4.000000, 4.000000, 4.000000
49.000000, 0.000000, 3674.871826, 3614.358887, 4182.563965, 3312.307617, 4237.948730, 0.000000, 8330.000000, 8377.000000, 0.000000, 0.000000, 0.000000, 3.000000, 26.000000, 1557623519.385620, 4.000000, 4.000000, 4.000000, 4.000000, 4.000000
50.000000, 0.000000, 3689.230713, 3606.153809, 4135.897461, 3290.256348, 4222.051270, 0.000000, 8336.000000, 8387.000000, 0.000000, 0.000000, 0.000000, 3.000000, 34.000000, 1557623519.393620, 4.000000, 4.000000, 4.000000, 4.000000, 4.000000
51.000000, 0.000000, 3680.512695, 3607.179443, 4125.127930, 3274.871826, 4206.666504, 0.000000, 8332.000000, 8397.000000, 0.000000, 0.000000, 0.000000, 3.000000, 41.700012, 1557623519.401320, 4.000000, 4.000000, 4.000000, 4.000000, 4.000000
52.000000, 0.000000, 3688.717773, 3624.102539, 4159.487305, 3294.358887, 4226.666504, 0.000000, 8323.000000, 8390.000000, 0.000000, 0.000000, 0.000000, 3.000000, 49.500000, 1557623519.409120, 4.000000, 4.000000, 4.000000, 4.000000, 4.000000
53.000000, 0.000000, 3695.897461, 3596.923096, 4140.000000, 3294.358887, 4224.615234, 0.000000, 8312.000000, 8383.000000, 0.000000, 0.000000, 0.000000, 3.000000, 57.300049, 1557623519.416920, 4.000000, 4.000000, 4.000000, 4.000000, 4.000000
54.000000, 0.000000, 3653.845947, 3540.000000, 4135.384277, 3272.820313, 4200.000000, 0.000000, 8280.000000, 8356.000000, 0.000000, 0.000000, 0.000000, 3.000000, 65.100037, 1557623519.424720, 4.000000, 4.000000, 4.000000, 4.000000, 4.000000
55.000000, 0.000000, 3647.179443, 3549.743408, 4176.410156, 3314.358887, 4227.179199, 0.000000, 8263.000000, 8338.000000, 0.000000, 0.000000, 0.000000, 3.000000, 73.000000, 1557623519.432620, 4.000000, 4.000000, 4.000000, 4.000000, 4.000000
56.000000, 0.000000, 3694.358887, 3582.051270, 4186.153809, 3343.076904, 4262.051270, 0.000000, 8224.000000, 8313.000000, 0.000000, 0.000000, 0.000000, 3.000000, 80.900024, 1557623519.440520, 4.000000, 4.000000, 4.000000, 4.000000, 4.000000
57.000000, 0.000000, 3705.128174, 3582.051270, 4180.000000, 3308.205078, 4253.333008, 0.000000, 8214.000000, 8301.000000, 0.000000, 0.000000, 0.000000, 3.000000, 88.900024, 1557623519.448520, 4.000000, 4.000000, 4.000000, 4.000000, 4.000000
58.000000, 0.000000, 3701.025635, 3584.615234, 4188.717773, 3315.897461, 4244.615234, 0.000000, 8193.000000, 8291.000000, 0.000000, 0.000000, 0.000000, 3.000000, 96.900024, 1557623519.456520, 4.000000, 4.000000, 4.000000, 4.000000, 4.000000
59.000000, 0.000000, 3722.563965, 3585.128174, 4178.461426, 3348.205078, 4257.948730, 0.000000, 8178.000000, 8288.000000, 0.000000, 0.000000, 0.000000, 3.000000, 104.700012, 1557623519.464320, 4.000000, 4.000000, 4.000000, 4.000000, 4.000000
60.000000, 0.000000, 3746.153809, 3598.974365, 4171.281738, 3338.461426, 4285.127930, 0.000000, 8153.000000, 8267.000000, 0.000000, 0.000000, 0.000000, 3.000000, 112.400024, 1557623519.472020, 4.000000, 4.000000, 4.000000, 4.000000, 4.000000
61.000000, 0.000000, 3741.538330, 3604.615234, 4168.205078, 3317.948730, 4280.000000, 0.000000, 8146.000000, 8246.000000, 0.000000, 0.000000, 0.000000, 3.000000, 120.200012, 1557623519.479820, 4.000000, 4.000000, 4.000000, 4.000000, 4.000000
62.000000, 0.000000, 3701.538330, 3560.000000, 4148.205078, 3298.461426, 4243.589844, 0.000000, 8118.000000, 8233.000000, 0.000000, 0.000000, 0.000000, 3.000000, 128.200012, 1557623519.487820, 4.000000, 4.000000, 4.000000, 4.000000, 4.000000
63.000000, 0.000000, 3687.692139, 3533.333252, 4162.563965, 3283.076904, 4251.794922, 0.000000, 8098.000000, 8228.000000, 0.000000, 0.000000, 0.000000, 3.000000, 136.200012, 1557623519.495820, 4.000000, 4.000000, 4.000000, 4.000000, 4.000000
64.000000, 0.000000, 3714.358887, 3555.384521, 4167.692383, 3304.102539, 4281.538574, 500.000000, 8061.000000, 8210.000000, 0.000000, 0.000000, 0.000000, 3.000000, 144.200012, 1557623519.503820, 4.000000, 4.000000, 4.000000, 4.000000, 4.000000
65.000000, 0.000000, 3721.025635, 3556.410156, 4148.717773, 3328.205078, 4273.846191, 500.000000, 8046.000000, 8215.000000, 0.000000, 0.000000, 0.000000, 3.000000, 152.100037, 1557623519.511720, 4.000000, 4.000000, 4.000000, 4.000000, 4.000000
66.000000, 0.000000, 3713.845947, 3535.897461, 4146.666504, 3313.846191, 4259.487305, 16211.000000, 8011.000000, 8223.000000, 0.000000, 0.000000, 0.000000, 3.000000, 160.100037, 1557623519.519720, 4.000000, 4.000000, 4.000000, 4.000000, 4.000000
67.000000, 0.000000, 3717.435791, 3545.128174, 4137.948730, 3308.717773, 4270.769043, 500.000000, 7999.000000, 8230.000000, 0.000000, 0.000000, 0.000000, 3.000000, 168.100037, 1557623519.527720, 4.000000, 4.000000, 4.000000, 4.000000, 4.000000
68.000000, 0.000000, 3715.897461, 3563.076904, 4135.384277, 3322.051270, 4273.333008, 16166.000000, 7997.000000, 8237.000000, 0.000000, 0.000000, 0.000000, 3.000000, 175.900024, 1557623519.535520, 4.000000, 4.000000, 4.000000, 4.000000, 4.000000
69.000000, 0.000000, 3725.128174, 3550.256348, 4135.897461, 3316.410156, 4254.358887, 500.000000, 8001.000000, 8255.000000, 0.000000, 0.000000, 0.000000, 3.000000, 183.700012, 1557623519.543320, 4.000000, 4.000000, 4.000000, 4.000000, 4.000000
70.000000, 0.000000, 3739.487061, 3527.179443, 4138.461426, 3313.846191, 4229.230469, 16144.000000, 8011.000000, 8258.000000, 0.000000, 0.000000, 0.000000, 3.000000, 191.400024, 1557623519.551020, 4.000000, 4.000000, 4.000000, 4.000000, 4.000000
71.000000, 0.000000, 3715.897461, 3527.692139, 4141.538574, 3325.640869, 4205.641113, 500.000000, 8031.000000, 8272.000000, 0.000000, 0.000000, 0.000000, 3.000000, 199.200012, 1557623519.558820, 4.000000, 4.000000, 4.000000, 4.000000, 4.000000
72.000000, 0.000000, 3687.692139, 3552.820313, 4124.615234, 3316.410156, 4190.256348, 500.000000, 8041.000000, 8288.000000, 0.000000, 0.000000, 0.000000, 3.000000, 207.200012, 1557623519.566820, 4.000000, 4.000000, 4.000000, 4.000000, 4.000000
73.000000, 0.000000, 3698.461426, 3556.923096, 4133.333008, 3305.640869, 4181.025391, 317.000000, 8060.000000, 8286.000000, 0.000000, 0.000000, 0.000000, 3.000000, 215.200012, 1557623519.574820, 4.000000, 4.000000, 4.000000, 4.000000, 4.000000
74.000000, 0.000000, 3708.717773, 3529.230713, 4136.922852, 3325.640869, 4189.743652, 500.000000, 8065.000000, 8270.000000, 0.000000, 0.000000, 0.000000, 3.000000, 222.900024, 1557623519.582520, 4.000000, 4.000000, 4.000000, 4.000000, 4.000000
75.000000, 0.000000, 3696.923096, 3537.948730, 4132.820313, 3350.769043, 4214.871582, 16178.000000, 8077.000000, 8246.000000, 0.000000, 0.000000, 0.000000, 3.000000, 230.900024, 1557623519.590520, 4.000000, 4.000000, 4.000000, 4.000000, 4.000000
76.000000, 0.000000, 3701.538330, 3578.974365, 4148.205078, 3365.128174, 4229.743652, 500.000000, 8081.000000, 8251.000000, 0.000000, 0.000000, 0.000000, 3.000000, 238.700012, 1557623519.598320, 4.000000, 4.000000, 4.000000, 4.000000, 4.000000
77.000000, 0.000000, 3733.845947, 3585.128174, 4133.846191, 3371.281982, 4234.358887, 500.000000, 8095.000000, 8250.000000, 0.000000, 0.000000, 0.000000, 3.000000, 246.500000, 1557623519.606120, 4.000000, 4.000000, 4.000000, 4.000000, 4.000000
78.000000, 0.000000, 3720.000000, 3560.000000, 4130.256348, 3360.000000, 4228.205078, 450.000000, 8105.000000, 8241.000000, 0.000000, 0.000000, 0.000000, 3.000000, 254.300049, 1557623519.613920, 4.000000, 4.000000, 4.000000, 4.000000, 4.000000
79.000000, 0.000000, 3666.153809, 3539.487061, 4122.051270, 3335.897461, 4200.000000, 16178.000000, 8110.000000, 8240.000000, 0.000000, 0.000000, 0.000000, 3.000000, 262.000000, 1557623519.621620, 4.000000, 4.000000, 4.000000, 4.000000, 4.000000
80.000000, 0.000000, 3661.538330, 3531.794678, 4122.051270, 3333.846191, 4180.000000, 450.000000, 8112.000000, 8235.000000, 0.000000, 0.000000, 0.000000, 3.000000, 270.000000, 1557623519.629620, 4.000000, 4.000000, 4.000000, 4.000000, 4.000000
81.000000, 0.000000, 3675.897461, 3534.358887, 4156.922852, 3348.205078, 4191.281738, 450.000000, 8123.000000, 8207.000000, 0.000000, 0.000000, 0.000000, 3.000000, 278.000000, 1557623519.637620, 4.000000, 4.000000, 4.000000, 4.000000, 4.000000
82.000000, 0.000000, 3658.974365, 3537.948730, 4132.820313, 3346.666504, 4188.205078, 450.000000, 8122.000000, 8201.000000, 0.000000, 0.000000, 0.000000, 3.000000, 286.000000, 1557623519.645620, 4.000000, 4.000000, 4.000000, 4.000000, 4.000000
83.000000, 0.000000, 3651.794678, 3525.128174, 4113.846191, 3339.487061, 4160.000000, 16178.000000, 8123.000000, 8196.000000, 0.000000, 0.000000, 0.000000, 3.000000, 294.000000, 1557623519.653620, 4.000000, 4.000000, 4.000000, 4.000000, 4.000000
84.000000, 0.000000, 3665.128174, 3515.897461, 4130.256348, 3343.076904, 4162.563965, 450.000000, 8121.000000, 8193.000000, 0.000000, 0.000000, 0.000000, 3.000000, 301.900024, 1557623519.661520, 4.000000, 4.000000, 4.000000, 4.000000, 4.000000
85.000000, 0.000000, 3654.358887, 3529.230713, 4126.153809, 3349.743408, 4169.743652, 450.000000, 8115.000000, 8206.000000, 0.000000, 0.000000, 0.000000, 3.000000, 309.700024, 1557623519.669320, 4.000000, 4.000000, 4.000000, 4.000000, 4.000000
86.000000, 0.000000, 3621.538330, 3544.615234, 4131.794922, 3352.820313, 4142.051270, 450.000000, 8108.000000, 8208.000000, 0.000000, 0.000000, 0.000000, 3.000000, 317.500025, 1557623519.677120, 4.000000, 4.000000, 4.000000, 4.000000, 4.000000
87.000000, 0.000000, 3588.205078, 3525.128174, 4126.153809, 3351.794678, 4124.102539, 16178.000000, 8105.000000, 8201.000000, 0.000000, 0.000000, 0.000000, 3.000000, 325.300024, 1557623519.684920, 4.000000, 4.000000, 4.000000, 4.000000, 4.000000
88.000000, 0.000000, 3571.281982, 3476.410156, 4115.897461, 3327.692139, 4114.871582, 450.000000, 8093.000000, 8198.000000, 0.000000, 0.000000, 0.000000, 3.000000, 333.100025, 1557623519.692720, 4.000000, 4.000000, 4.000000, 4.000000, 4.000000
89.000000, 0.000000, 3622.563965, 3485.128174, 4124.615234, 3304.615234, 4127.179199, 450.000000, 8081.000000, 8217.000000, 0.000000, 0.000000, 0.000000, 3.000000, 341.000023, 1557623519.700620, 4.000000, 4.000000, 4.000000, 4.000000, 4.000000
90.000000, 0.000000, 3708.205078, 3542.051270, 4138.461426, 3334.358887, 4192.820313, 450.000000, 8066.000000, 8230.000000, 0.000000, 0.000000, 0.000000, 3.000000, 349.000023, 1557623519.708620, 4.000000, 4.000000, 4.000000, 4.000000, 4.000000
91.000000, 0.000000, 3745.128174, 3549.743408, 4142.563965, 3371.281982, 4233.846191, 16178.000000, 8061.000000, 8221.000000, 0.000000, 0.000000, 0.000000, 3.000000, 357.000023, 1557623519.716620, 4.000000, 4.000000, 4.000000, 4.000000, 4.000000
92.000000, 0.000000, 3757.435791, 3530.256348, 4120.512695, 3350.256348, 4225.641113, 450.000000, 8049.000000, 8230.000000, 0.000000, 0.000000, 0.000000, 3.000000, 365.000023, 1557623519.724620, 4.000000, 4.000000, 4.000000, 4.000000, 4.000000
93.000000, 0.000000, 3780.512695, 3524.102539, 4123.589844, 3313.846191, 4242.051270, 450.000000, 8038.000000, 8249.000000, 0.000000, 0.000000, 0.000000, 3.000000, 372.700027, 1557623519.732320, 4.000000, 4.000000, 4.000000, 4.000000, 4.000000
94.000000, 0.000000, 3808.717773, 3552.820313, 4147.692383, 3338.461426, 4279.487305, 450.000000, 8035.000000, 8262.000000, 0.000000, 0.000000, 0.000000, 3.000000, 380.500023, 1557623519.740120, 4.000000, 4.000000, 4.000000, 4.000000, 4.000000
95.000000, 0.000000, 3805.128174, 3568.717773, 4141.538574, 3365.640869, 4267.692383, 16178.000000, 8028.000000, 8269.000000, 0.000000, 0.000000, 0.000000, 3.000000, 388.300026, 1557623519.747920, 4.000000, 4.000000, 4.000000, 4.000000, 4.000000
96.000000, 0.000000, 3771.794678, 3547.179443, 4137.948730, 3352.307617, 4231.281738, 450.000000, 8041.000000, 8271.000000, 0.000000, 0.000000, 0.000000, 3.000000, 396.100021, 1557623519.755720, 4.000000, 4.000000, 4.000000, 4.000000, 4.000000
97.000000, 0.000000, 3747.179443, 3560.512695, 4140.000000, 3370.256348, 4215.384277, 450.000000, 8039.000000, 8264.000000, 0.000000, 0.000000, 0.000000, 3.000000, 404.100021, 1557623519.763720, 4.000000, 4.000000, 4.000000, 4.000000, 4.000000
98.000000, 0.000000, 3710.769043, 3575.897461, 4137.436035, 3380.000000, 4190.256348, 450.000000, 8049.000000, 8261.000000, 0.000000, 0.000000, 0.000000, 3.000000, 412.000023, 1557623519.771620, 4.000000, 4.000000, 4.000000, 4.000000, 4.000000
99.000000, 0.000000, 3653.845947, 3522.051270, 4124.615234, 3322.563965, 4133.846191, 16178.000000, 8068.000000, 8265.000000, 0.000000, 0.000000, 0.000000, 3.000000, 419.800026, 1557623519.779420, 4.000000, 4.000000, 4.000000, 4.000000, 4.000000
100.000000, 0.000000, 3610.256348, 3463.589600, 4120.000000, 3294.358887, 4079.487061, 450.000000, 8099.000000, 8268.000000, 0.000000, 0.000000, 0.000000, 3.000000, 427.800026, 1557623519.787420, 4.000000, 4.000000, 4.000000, 4.000000, 4.000000
101.000000, 0.000000, 3611.281982, 3482.051270, 4148.205078, 3337.948730, 4062.563965, 450.000000, 8116.000000, 8259.000000, 0.000000, 0.000000, 0.000000, 3.000000, 435.600021, 1557623519.795220, 4.000000, 4.000000, 4.000000, 4.000000, 4.000000
102.000000, 0.000000, 3626.153809, 3512.820313, 4144.102539, 3353.333252, 4066.153809, 450.000000, 8132.000000, 8271.000000, 0.000000, 0.000000, 0.000000, 3.000000, 443.400024, 1557623519.803020, 4.000000, 4.000000, 4.000000, 4.000000, 4.000000
103.000000, 0.000000, 3617.948730, 3511.794678, 4130.769043, 3349.230713, 4077.948730, 16178.000000, 8162.000000, 8276.000000, 0.000000, 0.000000, 0.000000, 3.000000, 451.100021, 1557623519.810720, 4.000000, 4.000000, 4.000000, 4.000000, 4.000000
104.000000, 0.000000, 3571.794678, 3512.307617, 4141.538574, 3368.717773, 4108.717773, 450.000000, 8170.000000, 8264.000000, 0.000000, 0.000000, 0.000000, 3.000000, 459.100021, 1557623519.818720, 4.000000, 4.000000, 4.000000, 4.000000, 4.000000
105.000000, 0.000000, 3412.307617, 3502.051270, 4132.820313, 3373.846191, 4170.256348, 450.000000, 8179.000000, 8268.000000, 0.000000, 0.000000, 0.000000, 3.000000, 467.100021, 1557623519.826720, 4.000000, 4.000000, 4.000000, 4.000000, 4.000000
106.000000, 0.000000, 3153.333252, 3480.512695, 4129.230469, 3382.051270, 4256.922852, 450.000000, 8177.000000, 8272.000000, 0.000000, 0.000000, 0.000000, 3.000000, 475.100021, 1557623519.834720, 4.000000, 4.000000, 4.000000, 4.000000, 4.000000
107.000000, 0.000000, 2946.666504, 3459.487061, 4125.127930, 3387.179443, 4333.333008, 16178.000000, 8167.000000, 8264.000000, 0.000000, 0.000000, 0.000000, 3.000000, 483.000031, 1557623519.842620, 4.000000, 4.000000, 4.000000, 4.000000, 4.000000
108.000000, 0.000000, 2881.025635, 3463.589600, 4120.000000, 3375.384521, 4378.974121, 450.000000, 8163.000000, 8254.000000, 0.000000, 0.000000, 0.000000, 3.000000, 490.800018, 1557623519.850420, 4.000000, 4.000000, 4.000000, 4.000000, 4.000000
109.000000, 0.000000, 2850.769043, 3470.256348, 4116.410156, 3366.666504, 4388.717773, 450.000000, 8146.000000, 8253.000000, 0.000000, 0.000000, 0.000000, 3.000000, 498.600021, 1557623519.858220, 4.000000, 4.000000, 4.000000, 4.000000, 4.000000
110.000000, 0.000000, 2799.487061, 3453.333252, 4106.666504, 3366.666504, 4369.743652, 450.000000, 8145.000000, 8245.000000, 0.000000, 0.000000, 0.000000, 3.000000, 506.400024, 1557623519.866020, 4.000000, 4.000000, 4.000000, 4.000000, 4.000000
111.000000, 0.000000, 2800.512695, 3450.769043, 4128.717773, 3369.743408, 4369.230469, 16178.000000, 8136.000000, 8235.000000, 0.000000, 0.000000, 0.000000, 3.000000, 514.200027, 1557623519.873820, 4.000000, 4.000000, 4.000000, 4.000000, 4.000000
112.000000, 0.000000, 2822.563965, 3466.666504, 4136.922852, 3373.846191, 4394.358887, 450.000000, 8129.000000, 8241.000000, 0.000000, 0.000000, 0.000000, 3.000000, 522.100021, 1557623519.881720, 4.000000, 4.000000, 4.000000, 4.000000, 4.000000
113.000000, 0.000000, 2805.640869, 3460.512695, 4117.948730, 3381.025635, 4390.256348, 450.000000, 8126.000000, 8238.000000, 0.000000, 0.000000, 0.000000, 3.000000, 530.100021, 1557623519.889720, 4.000000, 4.000000, 4.000000, 4.000000, 4.000000
114.000000, 0.000000, 2776.410156, 3443.589600, 4123.589844, 3378.461426, 4357.948730, 450.000000, 8121.000000, 8223.000000, 0.000000, 0.000000, 0.000000, 3.000000, 538.100021, 1557623519.897720, 4.000000, 4.000000, 4.000000, 4.000000, 4.000000
115.000000, 0.000000, 2772.307617, 3452.307617, 4128.205078, 3370.769043, 4352.307617, 16178.000000, 8114.000000, 8222.000000, 0.000000, 0.000000, 0.000000, 3.000000, 546.000031, 1557623519.905620, 4.000000, 4.000000, 4.000000, 4.000000, 4.000000
116.000000, 0.000000, 2762.563965, 3457.948730, 4132.820313, 3374.358887, 4373.846191, 450.000000, 8110.000000, 8217.000000, 0.000000, 0.000000, 0.000000, 3.000000, 554.000031, 1557623519.913620, 4.000000, 4.000000, 4.000000, 4.000000, 4.000000
117.000000, 0.000000, 2727.692139, 3437.948730, 4126.666504, 3378.974365, 4365.127930, 450.000000, 8099.000000, 8198.000000, 0.000000, 0.000000, 0.000000, 3.000000, 561.900024, 1557623519.921520, 4.000000, 4.000000, 4.000000, 4.000000, 4.000000
118.000000, 0.000000, 2705.128174, 3416.410156, 4100.000000, 3366.666504, 4314.871582, 450.000000, 8077.000000, 8201.000000, 0.000000, 0.000000, 0.000000, 3.000000, 569.700012, 1557623519.929320, 4.000000, 4.000000, 4.000000, 4.000000, 4.000000
119.000000, 0.000000, 2701.025635, 3418.461426, 4103.589844, 3351.281982, 4278.461426, 16178.000000, 8073.000000, 8217.000000, 0.000000, 0.000000, 0.000000, 3.000000, 577.500031, 1557623519.937120, 4.000000, 4.000000, 4.000000, 4.000000, 4.000000
120.000000, 0.000000, 2692.820557, 3443.076904, 4114.358887, 3363.076904, 4268.717773, 450.000000, 8053.000000, 8234.000000, 0.000000, 0.000000, 0.000000, 3.000000, 585.300018, 1557623519.944920, 4.000000, 4.000000, 4.000000, 4.000000, 4.000000
121.000000, 0.000000, 2677.435791, 3454.871826, 4109.230469, 3367.692139, 4235.384277, 450.000000, 8051.000000, 8234.000000, 0.000000, 0.000000, 0.000000, 3.000000, 593.100037, 1557623519.952720, 4.000000, 4.000000, 4.000000, 4.000000, 4.000000
122.000000, 0.000000, 2656.923096, 3427.179443, 4103.589844, 3350.256348, 4185.127930, 450.000000, 8049.000000, 8250.000000, 0.000000, 0.000000, 0.000000, 3.000000, 601.100037, 1557623519.960720, 4.000000, 4.000000, 4.000000, 4.000000, 4.000000
123.000000, 0.000000, 2632.820557, 3411.794678, 4115.897461, 3357.435791, 4176.410156, 16178.000000, 8057.000000, 8258.000000, 0.000000, 0.000000, 0.000000, 3.000000, 608.900024, 1557623519.968520, 4.000000, 4.000000, 4.000000, 4.000000, 4.000000
124.000000, 0.000000, 2636.923096, 3432.307617, 4137.948730, 3368.205078, 4183.076660, 450.000000, 8076.000000, 8269.000000, 0.000000, 0.000000, 0.000000, 3.000000, 616.900024, 1557623519.976520, 4.000000, 4.000000, 4.000000, 4.000000, 4.000000
125.000000, 0.000000, 2653.333252, 3443.589600, 4114.871582, 3347.692139, 4153.333008, 450.000000, 8084.000000, 8271.000000, 0.000000, 0.000000, 0.000000, 3.000000, 624.900024, 1557623519.984520, 4.000000, 4.000000, 4.000000, 4.000000, 4.000000
126.000000, 0.000000, 2640.512695, 3429.230713, 4096.410156, 3342.563965, 4138.461426, 450.000000, 8098.000000, 8266.000000, 0.000000, 0.000000, 0.000000, 3.000000, 632.600037, 1557623519.992220, 4.000000, 4.000000, 4.000000, 4.000000, 4.000000
127.000000, 0.000000, 2624.102539, 3408.717773, 4107.692383, 3362.051270, 4145.641113, 16178.000000, 8110.000000, 8259.000000, 0.000000, 0.000000, 0.000000, 3.000000, 640.400024, 1557623520.000020, 4.000000, 4.000000, 4.000000, 4.000000, 4.000000
128.000000, 0.000000, 2632.307617, 3404.102539, 4103.076660, 3355.384521, 4131.281738, 500.000000, 8109.000000, 8258.000000, 0.000000, 0.000000, 0.000000, 3.000000, 648.200012, 1557623520.007820, 4.000000, 4.000000, 4.000000, 4.000000, 4.000000
0.000000, 0.000000, 2644.102539, 3407.692139, 4101.025391, 3342.563965, 4122.051270, 500.000000, 8108.000000, 8256.000000, 0.000000, 0.000000, 0.000000, 3.000000, 656.200012, 1557623520.015820, 4.000000, 4.000000, 4.000000, 4.000000, 4.000000
1.000000, 0.000000, 2627.692139, 3400.000000, 4098.461426, 3344.102539, 4111.794922, 500.000000, 8108.000000, 8248.000000, 0.000000, 0.000000, 0.000000, 3.000000, 664.100037, 1557623520.023720, 4.000000, 4.000000, 4.000000, 4.000000, 4.000000
2.000000, 0.000000, 2603.589600, 3401.025635, 4115.384277, 3341.025635, 4091.281982, 16218.000000, 8114.000000, 8245.000000, 0.000000, 0.000000, 0.000000, 3.000000, 672.000031, 1557623520.031620, 4.000000, 4.000000, 4.000000, 4.000000, 4.000000
3.000000, 0.000000, 2611.281982, 3412.820313, 4127.179199, 3340.000000, 4088.205078, 500.000000, 8116.000000, 8257.000000, 0.000000, 0.000000, 0.000000, 3.000000, 680.000031, 1557623520.039620, 4.000000, 4.000000, 4.000000, 4.000000, 4.000000
4.000000, 0.000000, 2630.256348, 3404.615234, 4107.179199, 3338.461426, 4078.974365, 16204.000000, 8113.000000, 8265.000000, 0.000000, 0.000000, 0.000000, 3.000000, 688.000031, 1557623520.047620, 4.000000, 4.000000, 4.000000, 4.000000, 4.000000
5.000000, 0.000000, 2622.563965, 3382.563965, 4112.820313, 3340.000000, 4055.897217, 500.000000, 8121.000000, 8259.000000, 0.000000, 0.000000, 0.000000, 3.000000, 695.800018, 1557623520.055420, 4.000000, 4.000000, 4.000000, 4.000000, 4.000000
6.000000, 0.000000, 2618.974365, 3396.410156, 4118.461426, 3356.410156, 4068.717773, 16160.000000, 8130.000000, 8255.000000, 0.000000, 0.000000, 0.000000, 3.000000, 703.500031, 1557623520.063120, 4.000000, 4.000000, 4.000000, 4.000000, 4.000000
7.000000, 0.000000, 2641.538330, 3428.717773, 4114.358887, 3372.820313, 4094.871582, 500.000000, 8139.000000, 8253.000000, 0.000000, 0.000000, 0.000000, 3.000000, 711.300018, 1557623520.070920, 4.000000, 4.000000, 4.000000, 4.000000, 4.000000
8.000000, 0.000000, 2623.589600, 3409.230713, 4120.000000, 3360.000000, 4083.076904, 500.000000, 8149.000000, 8233.000000, 0.000000, 0.000000, 0.000000, 3.000000, 719.100037, 1557623520.078720, 4.000000, 4.000000, 4.000000, 4.000000, 4.000000
9.000000, 0.000000, 2578.974365, 3367.692139, 4115.897461, 3340.000000, 4063.076904, 324.000000, 8152.000000, 8221.000000, 0.000000, 0.000000, 0.000000, 3.000000, 727.100037, 1557623520.086720, 4.000000, 4.000000, 4.000000, 4.000000, 4.000000
10.000000, 0.000000, 2596.410156, 3378.461426, 4117.436035, 3348.717773, 4046.153809, 500.000000, 8159.000000, 8205.000000, 0.000000, 0.000000, 0.000000, 3.000000, 735.100037, 1557623520.094720, 4.000000, 4.000000, 4.000000, 4.000000, 4.000000
11.000000, 0.000000, 2625.128174, 3403.076904, 4117.948730, 3362.051270, 4048.205078, 16180.000000, 8155.000000, 8200.000000, 0.000000, 0.000000, 0.000000, 3.000000, 743.000031, 1557623520.102620, 4.000000, 4.000000, 4.000000, 4.000000, 4.000000
12.000000, 0.000000, 2608.717773, 3389.743408, 4120.512695, 3353.846191, 4061.538330, 500.000000, 8151.000000, 8202.000000, 0.000000, 0.000000, 0.000000, 3.000000, 751.000031, 1557623520.110620, 4.000000, 4.000000, 4.000000, 4.000000, 4.000000
13.000000, 0.000000, 2608.205078, 3384.102539, 4118.974121, 3345.128174, 4035.897217, 500.000000, 8139.000000, 8213.000000, 0.000000, 0.000000, 0.000000, 3.000000, 759.000031, 1557623520.118620, 4.000000, 4.000000, 4.000000, 4.000000, 4.000000
14.000000, 0.000000, 2625.640869, 3385.128174, 4102.563965, 3353.333252, 4012.307617, 450.000000, 8134.000000, 8221.000000, 0.000000, 0.000000, 0.000000, 3.000000, 766.800018, 1557623520.126420, 4.000000, 4.000000, 4.000000, 4.000000, 4.000000
15.000000, 0.000000, 2614.358887, 3367.179443, 4107.179199, 3341.538330, 4011.794678, 16180.000000, 8131.000000, 8218.000000, 0.000000, 0.000000, 0.000000, 3.000000, 774.600037, 1557623520.134220, 4.000000, 4.000000, 4.000000, 4.000000, 4.000000
16.000000, 0.000000, 2608.717773, 3360.000000, 4107.692383, 3320.512695, 3995.897217, 0.000000, 8124.000000, 8230.000000, 0.000000, 0.000000, 0.000000, 3.000000, 782.300018, 1557623520.141920, 4.000000, 4.000000, 4.000000, 4.000000, 4.000000
17.000000, 0.000000, 2627.692139, 3365.640869, 4095.897217, 3341.025635, 3981.538330, 0.000000, 8109.000000, 8231.000000, 0.000000, 0.000000, 0.000000, 3.000000, 790.100037, 1557623520.149720, 4.000000, 4.000000, 4.000000, 4.000000, 4.000000
18.000000, 0.000000, 2630.256348, 3363.076904, 4101.025391, 3367.179443, 3978.461426, 0.000000, 8111.000000, 8218.000000, 0.000000, 0.000000, 0.000000, 3.000000, 798.100037, 1557623520.157720, 4.000000, 4.000000, 4.000000, 4.000000, 4.000000
19.000000, 0.000000, 2607.179443, 3352.820313, 4092.820313, 3357.948730, 3954.871582, 0.000000, 8111.000000, 8204.000000, 0.000000, 0.000000, 0.000000, 3.000000, 806.000031, 1557623520.165620, 4.000000, 4.000000, 4.000000, 4.000000, 4.000000
20.000000, 0.000000, 2585.128174, 3345.640869, 4090.769043, 3334.358887, 3928.717773, 0.000000, 8107.000000, 8203.000000, 0.000000, 0.000000, 0.000000, 3.000000, 813.900024, 1557623520.173520, 4.000000, 4.000000, 4.000000, 4.000000, 4.000000
21.000000, 0.000000, 2585.128174, 3340.000000, 4101.538574, 3322.051270, 3936.923096, 0.000000, 8111.000000, 8200.000000, 0.000000, 0.000000, 0.000000, 3.000000, 821.900024, 1557623520.181520, 4.000000, 4.000000, 4.000000, 4.000000, 4.000000
22.000000, 0.000000, 2638.974365, 3339.487061, 4105.127930, 3342.051270, 3959.487061, 0.000000, 8110.000000, 8206.000000, 0.000000, 0.000000, 0.000000, 3.000000, 829.700012, 1557623520.189320, 4.000000, 4.000000, 4.000000, 4.000000, 4.000000
23.000000, 0.000000, 2707.179443, 3356.410156, 4116.410156, 3376.923096, 3985.128174, 0.000000, 8105.000000, 8219.000000, 0.000000, 0.000000, 0.000000, 3.000000, 837.500000, 1557623520.197120, 4.000000, 4.000000, 4.000000, 4.000000, 4.000000
24.000000, 0.000000, 2739.487061, 3375.384521, 4120.000000, 3388.205078, 4008.717773, 0.000000, 8103.000000, 8215.000000, 0.000000, 0.000000, 0.000000, 3.000000, 845.300049, 1557623520.204920, 4.000000, 4.000000, 4.000000, 4.000000, 4.000000
25.000000, 0.000000, 2753.333252, 3370.769043, 4122.563965, 3379.487061, 4014.871582, 0.000000, 8091.000000, 8234.000000, 0.000000, 0.000000, 0.000000, 3.000000, 853.000000, 1557623520.212620, 4.000000, 4.000000, 4.000000, 4.000000, 4.000000
26.000000, 0.000000, 2748.717773, 3380.000000, 4125.127930, 3366.153809, 4008.205078, 0.000000, 8093.000000, 8253.000000, 0.000000, 0.000000, 0.000000, 3.000000, 860.900024, 1557623520.220520, 4.000000, 4.000000, 4.000000, 4.000000, 4.000000
