title:bhushan sad 2, recorded:12.05.19 06.38.36, timestamp started:2019-05-12T06:38:36.210819+05:30, sampling:128, subject:, labels:COUNTER INTERPOLATED AF3 T7 Pz T8 AF4 RAW_CQ GYROX GYROY MARKER MARKER_HARDWARE SYNC TIME_STAMP_s TIME_STAMP_ms TimeStamp CQ_AF3 CQ_T7 CQ_Pz CQ_T8 CQ_AF4, chan:20, samples:4341, units:emotiv
63.000000, 0.000000, 4936.410156, 4646.153809, 4204.615234, 3993.845947, 4164.102539, 0.000000, 8143.000000, 8357.000000, 1.000000, 2.000000, 0.000000, 0.000000, 0.000000, 1557623316.210820, 4.000000, 4.000000, 1.000000, 4.000000, 4.000000
64.000000, 0.000000, 4935.384277, 4641.538574, 4220.512695, 3997.948730, 4170.256348, 500.000000, 8138.000000, 8358.000000, 0.000000, 0.000000, 0.000000, 0.000000, 8.000000, 1557623316.218820, 4.000000, 4.000000, 1.000000, 4.000000, 4.000000
65.000000, 0.000000, 4982.051270, 4650.256348, 4210.769043, 4007.692139, 4169.743652, 500.000000, 8137.000000, 8365.000000, 0.000000, 0.000000, 0.000000, 0.000000, 15.900024, 1557623316.226720, 4.000000, 4.000000, 1.000000, 4.000000, 4.000000
66.000000, 0.000000, 5023.076660, 4657.948730, 4209.230469, 3998.974365, 4173.333008, 16188.000000, 8143.000000, 8360.000000, 0.000000, 0.000000, 0.000000, 0.000000, 23.700012, 1557623316.234520, 4.000000, 4.000000, 1.000000, 4.000000, 4.000000
67.000000, 0.000000, 5035.897461, 4647.179199, 4222.051270, 3988.717773, 4171.794922, 500.000000, 8142.000000, 8355.000000, 0.000000, 0.000000, 0.000000, 0.000000, 31.500000, 1557623316.242320, 4.000000, 4.000000, 1.000000, 4.000000, 4.000000
68.000000, 0.000000, 5068.205078, 4656.410156, 4209.743652, 3985.640869, 4161.025391, 16163.000000, 8145.000000, 8364.000000, 0.000000, 0.000000, 0.000000, 0.000000, 39.299988, 1557623316.250120, 4.000000, 4.000000, 1.000000, 4.000000, 4.000000
69.000000, 0.000000, 5095.384277, 4669.230469, 4214.871582, 3977.435791, 4172.307617, 500.000000, 8145.000000, 8367.000000, 0.000000, 0.000000, 0.000000, 0.000000, 47.200012, 1557623316.258020, 4.000000, 4.000000, 1.000000, 4.000000, 4.000000
70.000000, 0.000000, 5093.333008, 4660.000000, 4223.589844, 3975.384521, 4188.205078, 47.000000, 8145.000000, 8356.000000, 0.000000, 0.000000, 0.000000, 0.000000, 55.100037, 1557623316.265920, 4.000000, 4.000000, 0.000000, 4.000000, 4.000000
71.000000, 0.000000, 5096.922852, 4657.948730, 4210.256348, 3976.410156, 4160.512695, 500.000000, 8145.000000, 8349.000000, 0.000000, 0.000000, 0.000000, 0.000000, 63.100037, 1557623316.273920, 4.000000, 4.000000, 0.000000, 4.000000, 4.000000
72.000000, 0.000000, 5095.897461, 4658.974121, 4212.820313, 3965.640869, 4146.666504, 500.000000, 8146.000000, 8356.000000, 0.000000, 0.000000, 0.000000, 0.000000, 71.100037, 1557623316.281920, 4.000000, 4.000000, 0.000000, 4.000000, 4.000000
73.000000, 0.000000, 5075.897461, 4640.000000, 4222.563965, 3974.871582, 4194.358887, 16063.000000, 8155.000000, 8352.000000, 0.000000, 0.000000, 0.000000, 0.000000, 79.100037, 1557623316.289920, 4.000000, 4.000000, 0.000000, 4.000000, 4.000000
74.000000, 0.000000, 5082.563965, 4635.384277, 4226.153809, 4007.179443, 4214.358887, 500.000000, 8157.000000, 8349.000000, 0.000000, 0.000000, 0.000000, 0.000000, 86.799988, 1557623316.297620, 4.000000, 4.000000, 0.000000, 4.000000, 4.000000
75.000000, 0.000000, 5096.922852, 4652.820313, 4214.358887, 4004.615234, 4180.512695, 16171.000000, 8155.000000, 8347.000000, 0.000000, 0.000000, 0.000000, 0.000000, 94.600037, 1557623316.305420, 4.000000, 4.000000, 0.000000, 4.000000, 4.000000
76.000000, 0.000000, 5070.769043, 4649.743652, 4205.127930, 3977.435791, 4177.436035, 500.000000, 8158.000000, 8353.000000, 0.000000, 0.000000, 0.000000, 0.000000, 102.400024, 1557623316.313220, 4.000000, 4.000000, 0.000000, 4.000000, 4.000000
77.000000, 0.000000, 5050.256348, 4632.307617, 4219.487305, 3979.487061, 4195.384277, 500.000000, 8162.000000, 8345.000000, 0.000000, 0.000000, 0.000000, 0.000000, 110.299988, 1557623316.321120, 4.000000, 4.000000, 0.000000, 4.000000, 4.000000
78.000000, 0.000000, 5055.384277, 4628.717773, 4221.025391, 3983.076904, 4177.436035, 450.000000, 8164.000000, 8351.000000, 0.000000, 0.000000, 0.000000, 0.000000, 118.100037, 1557623316.328920, 4.000000, 4.000000, 0.000000, 4.000000, 4.000000
79.000000, 0.000000, 5049.230469, 4634.358887, 4216.922852, 3967.692139, 4162.051270, 16171.000000, 8163.000000, 8349.000000, 0.000000, 0.000000, 0.000000, 0.000000, 126.000000, 1557623316.336820, 4.000000, 4.000000, 0.000000, 4.000000, 4.000000
80.000000, 0.000000, 5037.435547, 4632.307617, 4221.538574, 3974.871582, 4191.794922, 450.000000, 8159.000000, 8342.000000, 0.000000, 0.000000, 0.000000, 0.000000, 134.000000, 1557623316.344820, 4.000000, 4.000000, 0.000000, 4.000000, 4.000000
81.000000, 0.000000, 5034.358887, 4625.127930, 4224.615234, 3997.948730, 4215.384277, 450.000000, 8157.000000, 8334.000000, 0.000000, 0.000000, 0.000000, 0.000000, 142.000000, 1557623316.352820, 4.000000, 4.000000, 0.000000, 4.000000, 4.000000
82.000000, 0.000000, 5037.948730, 4628.205078, 4216.410156, 3998.461426, 4195.384277, 450.000000, 8155.000000, 8348.000000, 0.000000, 0.000000, 0.000000, 0.000000, 150.000000, 1557623316.360820, 4.000000, 4.000000, 0.000000, 4.000000, 4.000000
83.000000, 0.000000, 5026.666504, 4630.256348, 4203.076660, 3981.025635, 4184.102539, 16171.000000, 8156.000000, 8338.000000, 0.000000, 0.000000, 0.000000, 0.000000, 157.700012, 1557623316.368520, 4.000000, 4.000000, 0.000000, 4.000000, 4.000000
84.000000, 0.000000, 4997.435547, 4617.435547, 4221.025391, 3973.845947, 4203.076660, 450.000000, 8152.000000, 8332.000000, 0.000000, 0.000000, 0.000000, 0.000000, 165.500000, 1557623316.376320, 4.000000, 4.000000, 0.000000, 4.000000, 4.000000
85.000000, 0.000000, 4983.076660, 4605.641113, 4233.333008, 3985.128174, 4211.794922, 450.000000, 8150.000000, 8343.000000, 0.000000, 0.000000, 0.000000, 0.000000, 173.299988, 1557623316.384120, 4.000000, 4.000000, 0.000000, 4.000000, 4.000000
86.000000, 0.000000, 4992.820313, 4602.563965, 4218.974121, 3991.281982, 4196.410156, 450.000000, 8143.000000, 8340.000000, 0.000000, 0.000000, 0.000000, 0.000000, 181.299988, 1557623316.392120, 4.000000, 4.000000, 0.000000, 4.000000, 4.000000
87.000000, 0.000000, 4985.127930, 4606.153809, 4222.563965, 3975.384521, 4185.641113, 16171.000000, 8148.000000, 8333.000000, 0.000000, 0.000000, 0.000000, 0.000000, 189.299988, 1557623316.400120, 4.000000, 4.000000, 0.000000, 4.000000, 4.000000
88.000000, 0.000000, 4948.717773, 4601.538574, 4219.487305, 3964.615234, 4188.717773, 450.000000, 8146.000000, 8337.000000, 0.000000, 0.000000, 0.000000, 0.000000, 197.000000, 1557623316.407820, 4.000000, 4.000000, 0.000000, 4.000000, 4.000000
89.000000, 0.000000, 4923.076660, 4582.051270, 4207.179199, 3964.615234, 4181.538574, 450.000000, 8140.000000, 8337.000000, 0.000000, 0.000000, 0.000000, 0.000000, 205.000000, 1557623316.415820, 4.000000, 4.000000, 0.000000, 4.000000, 4.000000
90.000000, 0.000000, 4910.256348, 4570.256348, 4203.589844, 3957.435791, 4165.127930, 450.000000, 8137.000000, 8329.000000, 0.000000, 0.000000, 0.000000, 0.000000, 213.000000, 1557623316.423820, 4.000000, 4.000000, 0.000000, 4.000000, 4.000000
91.000000, 0.000000, 4892.820313, 4576.922852, 4203.076660, 3955.897461, 4157.948730, 16171.000000, 8137.000000, 8333.000000, 0.000000, 0.000000, 0.000000, 0.000000, 220.799988, 1557623316.431620, 4.000000, 4.000000, 0.000000, 4.000000, 4.000000
92.000000, 0.000000, 4871.794922, 4588.205078, 4223.076660, 3970.769043, 4172.820313, 450.000000, 8137.000000, 8333.000000, 0.000000, 0.000000, 0.000000, 0.000000, 228.600037, 1557623316.439420, 4.000000, 4.000000, 0.000000, 4.000000, 4.000000
93.000000, 0.000000, 4854.358887, 4589.230469, 4227.692383, 3984.102539, 4198.461426, 450.000000, 8138.000000, 8325.000000, 0.000000, 0.000000, 0.000000, 0.000000, 236.299988, 1557623316.447120, 4.000000, 4.000000, 0.000000, 4.000000, 4.000000
94.000000, 0.000000, 4857.435547, 4576.410156, 4204.102539, 3992.307617, 4197.948730, 450.000000, 8139.000000, 8323.000000, 0.000000, 0.000000, 0.000000, 0.000000, 244.100037, 1557623316.454920, 4.000000, 4.000000, 0.000000, 4.000000, 4.000000
95.000000, 0.000000, 4864.102539, 4564.102539, 4195.897461, 4000.512695, 4184.102539, 16171.000000, 8141.000000, 8328.000000, 0.000000, 0.000000, 0.000000, 0.000000, 252.100037, 1557623316.462920, 4.000000, 4.000000, 0.000000, 4.000000, 4.000000
96.000000, 0.000000, 4848.717773, 4571.281738, 4203.589844, 4000.000000, 4191.281738, 450.000000, 8146.000000, 8323.000000, 0.000000, 0.000000, 0.000000, 0.000000, 260.100037, 1557623316.470920, 4.000000, 4.000000, 0.000000, 4.000000, 4.000000
97.000000, 0.000000, 4834.871582, 4591.794922, 4205.127930, 3982.051270, 4202.051270, 450.000000, 8144.000000, 8321.000000, 0.000000, 0.000000, 0.000000, 0.000000, 268.000000, 1557623316.478820, 4.000000, 4.000000, 0.000000, 4.000000, 4.000000
98.000000, 0.000000, 4834.871582, 4589.230469, 4191.281738, 3971.794678, 4199.487305, 450.000000, 8148.000000, 8330.000000, 0.000000, 0.000000, 0.000000, 0.000000, 276.000000, 1557623316.486820, 4.000000, 4.000000, 0.000000, 4.000000, 4.000000
99.000000, 0.000000, 4819.487305, 4570.769043, 4204.102539, 3973.333252, 4198.974121, 16171.000000, 8156.000000, 8326.000000, 0.000000, 0.000000, 0.000000, 0.000000, 284.000000, 1557623316.494820, 4.000000, 4.000000, 0.000000, 4.000000, 4.000000
100.000000, 0.000000, 4789.230469, 4569.230469, 4225.127930, 3964.102539, 4204.615234, 450.000000, 8160.000000, 8322.000000, 0.000000, 0.000000, 0.000000, 0.000000, 291.799988, 1557623316.502620, 4.000000, 4.000000, 0.000000, 4.000000, 4.000000
101.000000, 0.000000, 4762.563965, 4575.384277, 4215.897461, 3954.871582, 4207.179199, 450.000000, 8163.000000, 8329.000000, 0.000000, 0.000000, 0.000000, 0.000000, 299.600037, 1557623316.510420, 4.000000, 4.000000, 0.000000, 4.000000, 4.000000
102.000000, 0.000000, 4733.846191, 4563.076660, 4218.461426, 3972.820313, 4207.179199, 450.000000, 8162.000000, 8340.000000, 0.000000, 0.000000, 0.000000, 0.000000, 307.299988, 1557623316.518120, 4.000000, 4.000000, 0.000000, 4.000000, 4.000000
103.000000, 0.000000, 4725.641113, 4541.538574, 4211.281738, 3989.230713, 4193.333008, 16171.000000, 8166.000000, 8333.000000, 0.000000, 0.000000, 0.000000, 0.000000, 315.200012, 1557623316.526020, 4.000000, 4.000000, 0.000000, 4.000000, 4.000000
104.000000, 0.000000, 4729.230469, 4551.794922, 4192.820313, 3976.410156, 4182.563965, 450.000000, 8164.000000, 8334.000000, 0.000000, 0.000000, 0.000000, 0.000000, 323.200012, 1557623316.534020, 4.000000, 4.000000, 0.000000, 4.000000, 4.000000
105.000000, 0.000000, 4696.922852, 4572.820313, 4195.897461, 3969.230713, 4200.000000, 450.000000, 8162.000000, 8340.000000, 0.000000, 0.000000, 0.000000, 0.000000, 331.200012, 1557623316.542020, 4.000000, 4.000000, 0.000000, 4.000000, 4.000000
106.000000, 0.000000, 4657.948730, 4562.051270, 4198.461426, 3975.897217, 4211.794922, 450.000000, 8165.000000, 8338.000000, 0.000000, 0.000000, 0.000000, 0.000000, 339.200012, 1557623316.550020, 4.000000, 4.000000, 0.000000, 4.000000, 4.000000
107.000000, 0.000000, 4613.846191, 4538.461426, 4194.871582, 3970.769043, 4192.307617, 16171.000000, 8162.000000, 8336.000000, 0.000000, 0.000000, 0.000000, 0.000000, 346.900024, 1557623316.557720, 4.000000, 4.000000, 0.000000, 4.000000, 4.000000
108.000000, 0.000000, 4503.589844, 4536.410156, 4186.666504, 3951.794678, 4178.974121, 450.000000, 8160.000000, 8344.000000, 0.000000, 0.000000, 0.000000, 0.000000, 354.700012, 1557623316.565520, 4.000000, 4.000000, 0.000000, 4.000000, 4.000000
109.000000, 0.000000, 4377.435547, 4541.538574, 4191.794922, 3943.076904, 4194.871582, 450.000000, 8153.000000, 8340.000000, 0.000000, 0.000000, 0.000000, 0.000000, 362.500000, 1557623316.573320, 4.000000, 4.000000, 0.000000, 4.000000, 4.000000
110.000000, 0.000000, 4314.871582, 4529.743652, 4205.641113, 3952.820313, 4197.948730, 450.000000, 8153.000000, 8332.000000, 0.000000, 0.000000, 0.000000, 0.000000, 370.299988, 1557623316.581120, 4.000000, 4.000000, 0.000000, 4.000000, 4.000000
111.000000, 0.000000, 4273.333008, 4512.820313, 4188.717773, 3956.923096, 4171.281738, 16171.000000, 8142.000000, 8326.000000, 0.000000, 0.000000, 0.000000, 0.000000, 378.100037, 1557623316.588920, 4.000000, 4.000000, 0.000000, 4.000000, 4.000000
112.000000, 0.000000, 4230.256348, 4506.666504, 4176.922852, 3951.794678, 4158.461426, 450.000000, 8139.000000, 8335.000000, 0.000000, 0.000000, 0.000000, 0.000000, 386.100037, 1557623316.596920, 4.000000, 4.000000, 0.000000, 4.000000, 4.000000
113.000000, 0.000000, 4210.769043, 4508.205078, 4178.461426, 3957.435791, 4171.281738, 450.000000, 8140.000000, 8327.000000, 0.000000, 0.000000, 0.000000, 0.000000, 394.100037, 1557623316.604920, 4.000000, 4.000000, 0.000000, 4.000000, 4.000000
114.000000, 0.000000, 4181.538574, 4496.922852, 4169.743652, 3966.153809, 4174.871582, 450.000000, 8140.000000, 8330.000000, 0.000000, 0.000000, 0.000000, 0.000000, 402.100037, 1557623316.612920, 4.000000, 4.000000, 0.000000, 4.000000, 4.000000
115.000000, 0.000000, 4137.436035, 4478.974121, 4168.717773, 3953.333252, 4159.487305, 16171.000000, 8134.000000, 8337.000000, 0.000000, 0.000000, 0.000000, 0.000000, 409.900024, 1557623316.620720, 4.000000, 4.000000, 0.000000, 4.000000, 4.000000
116.000000, 0.000000, 4112.820313, 4479.487305, 4171.281738, 3933.333252, 4148.717773, 450.000000, 8123.000000, 8341.000000, 0.000000, 0.000000, 0.000000, 0.000000, 417.600037, 1557623316.628420, 4.000000, 4.000000, 0.000000, 4.000000, 4.000000
117.000000, 0.000000, 4084.615234, 4476.922852, 4173.846191, 3940.512695, 4153.333008, 450.000000, 8120.000000, 8335.000000, 0.000000, 0.000000, 0.000000, 0.000000, 425.400024, 1557623316.636220, 4.000000, 4.000000, 0.000000, 4.000000, 4.000000
118.000000, 0.000000, 4036.410156, 4460.512695, 4172.307617, 3953.845947, 4164.102539, 450.000000, 8126.000000, 8333.000000, 0.000000, 0.000000, 0.000000, 0.000000, 433.200012, 1557623316.644020, 4.000000, 4.000000, 0.000000, 4.000000, 4.000000
119.000000, 0.000000, 3998.461426, 4466.153809, 4173.846191, 3947.179443, 4168.717773, 16171.000000, 8129.000000, 8335.000000, 0.000000, 0.000000, 0.000000, 0.000000, 441.000000, 1557623316.651820, 4.000000, 4.000000, 0.000000, 4.000000, 4.000000
120.000000, 0.000000, 3980.512695, 4482.563965, 4187.179199, 3943.076904, 4171.281738, 450.000000, 8134.000000, 8337.000000, 0.000000, 0.000000, 0.000000, 0.000000, 449.000000, 1557623316.659820, 4.000000, 4.000000, 0.000000, 4.000000, 4.000000
121.000000, 0.000000, 3955.897461, 4472.820313, 4165.641113, 3944.615234, 4159.487305, 450.000000, 8127.000000, 8344.000000, 0.000000, 0.000000, 0.000000, 0.000000, 456.900012, 1557623316.667720, 4.000000, 4.000000, 0.000000, 4.000000, 4.000000
122.000000, 0.000000, 3908.205078, 4458.974121, 4151.794922, 3934.871582, 4135.897461, 450.000000, 8136.000000, 8345.000000, 0.000000, 0.000000, 0.000000, 0.000000, 464.900012, 1557623316.675720, 4.000000, 4.000000, 0.000000, 4.000000, 4.000000
123.000000, 0.000000, 3878.461426, 4455.384277, 4179.487305, 3930.769043, 4135.384277, 16171.000000, 8139.000000, 8341.000000, 0.000000, 0.000000, 0.000000, 0.000000, 472.900013, 1557623316.683720, 4.000000, 4.000000, 0.000000, 4.000000, 4.000000
124.000000, 0.000000, 3894.358887, 4442.563965, 4188.205078, 3942.051270, 4149.230469, 450.000000, 8144.000000, 8337.000000, 0.000000, 0.000000, 0.000000, 0.000000, 480.700012, 1557623316.691520, 4.000000, 4.000000, 0.000000, 4.000000, 4.000000
125.000000, 0.000000, 3904.615234, 4442.051270, 4177.436035, 3946.153809, 4160.512695, 450.000000, 8145.000000, 8343.000000, 0.000000, 0.000000, 0.000000, 0.000000, 488.400013, 1557623316.699220, 4.000000, 4.000000, 0.000000, 4.000000, 4.000000
126.000000, 0.000000, 3889.230713, 4465.641113, 4178.974121, 3936.410156, 4181.025391, 450.000000, 8154.000000, 8349.000000, 0.000000, 0.000000, 0.000000, 0.000000, 496.400013, 1557623316.707220, 4.000000, 4.000000, 0.000000, 4.000000, 4.000000
127.000000, 0.000000, 3903.589600, 4468.717773, 4197.948730, 3938.974365, 4210.256348, 16171.000000, 8158.000000, 8333.000000, 0.000000, 0.000000, 0.000000, 0.000000, 504.200012, 1557623316.715020, 4.000000, 4.000000, 0.000000, 4.000000, 4.000000
128.000000, 0.000000, 3947.692139, 4443.076660, 4192.307617, 3950.769043, 4230.256348, 500.000000, 8154.000000, 8344.000000, 0.000000, 0.000000, 0.000000, 0.000000, 512.100014, 1557623316.722920, 4.000000, 4.000000, 0.000000, 4.000000, 4.000000
0.000000, 0.000000, 3970.769043, 4443.076660, 4160.000000, 3950.256348, 4233.333008, 500.000000, 8162.000000, 8350.000000, 0.000000, 0.000000, 0.000000, 0.000000, 520.100014, 1557623316.730920, 4.000000, 4.000000, 0.000000, 4.000000, 4.000000
1.000000, 0.000000, 3974.358887, 4461.538574, 4165.641113, 3941.025635, 4231.794922, 500.000000, 8158.000000, 8345.000000, 0.000000, 0.000000, 0.000000, 0.000000, 528.000015, 1557623316.738820, 4.000000, 4.000000, 0.000000, 4.000000, 4.000000
2.000000, 0.000000, 3988.717773, 4447.179199, 4177.436035, 3936.923096, 4242.563965, 16188.000000, 8154.000000, 8342.000000, 0.000000, 0.000000, 0.000000, 0.000000, 536.000015, 1557623316.746820, 4.000000, 4.000000, 0.000000, 4.000000, 4.000000
3.000000, 0.000000, 4005.640869, 4430.256348, 4172.820313, 3954.358887, 4264.102539, 500.000000, 8154.000000, 8343.000000, 0.000000, 0.000000, 0.000000, 0.000000, 543.800011, 1557623316.754620, 4.000000, 4.000000, 0.000000, 4.000000, 4.000000
4.000000, 0.000000, 4010.256348, 4445.127930, 4166.666504, 3966.666504, 4269.230469, 16158.000000, 8155.000000, 8350.000000, 0.000000, 0.000000, 0.000000, 0.000000, 551.600014, 1557623316.762420, 4.000000, 4.000000, 0.000000, 4.000000, 4.000000
5.000000, 0.000000, 4008.205078, 4462.051270, 4160.512695, 3942.051270, 4261.025391, 500.000000, 8147.000000, 8354.000000, 0.000000, 0.000000, 0.000000, 0.000000, 559.400009, 1557623316.770220, 4.000000, 4.000000, 0.000000, 4.000000, 4.000000
6.000000, 0.000000, 3993.333252, 4460.000000, 4173.333008, 3917.948730, 4264.615234, 35.000000, 8136.000000, 8361.000000, 0.000000, 0.000000, 0.000000, 0.000000, 567.100014, 1557623316.777920, 4.000000, 4.000000, 0.000000, 4.000000, 4.000000
7.000000, 0.000000, 3974.358887, 4446.153809, 4180.000000, 3923.589600, 4278.461426, 500.000000, 8139.000000, 8356.000000, 0.000000, 0.000000, 0.000000, 0.000000, 575.100014, 1557623316.785920, 4.000000, 4.000000, 0.000000, 4.000000, 4.000000
8.000000, 0.000000, 3980.000000, 4438.461426, 4172.307617, 3924.615234, 4280.000000, 500.000000, 8129.000000, 8360.000000, 0.000000, 0.000000, 0.000000, 0.000000, 583.100014, 1557623316.793920, 4.000000, 4.000000, 0.000000, 4.000000, 4.000000
9.000000, 0.000000, 3995.897217, 4449.743652, 4169.230469, 3907.179443, 4270.769043, 16063.000000, 8123.000000, 8375.000000, 0.000000, 0.000000, 0.000000, 0.000000, 591.100006, 1557623316.801920, 4.000000, 4.000000, 0.000000, 4.000000, 4.000000
10.000000, 0.000000, 3989.230713, 4451.794922, 4167.692383, 3906.153809, 4274.358887, 500.000000, 8122.000000, 8370.000000, 0.000000, 0.000000, 0.000000, 0.000000, 599.000015, 1557623316.809820, 4.000000, 4.000000, 0.000000, 4.000000, 4.000000
11.000000, 0.000000, 3969.743408, 4434.358887, 4183.076660, 3909.743408, 4280.000000, 16181.000000, 8120.000000, 8360.000000, 0.000000, 0.000000, 0.000000, 0.000000, 607.000015, 1557623316.817820, 4.000000, 4.000000, 0.000000, 4.000000, 4.000000
12.000000, 0.000000, 3951.794678, 4425.127930, 4185.127930, 3899.487061, 4257.948730, 500.000000, 8121.000000, 8355.000000, 0.000000, 0.000000, 0.000000, 0.000000, 614.800018, 1557623316.825620, 4.000000, 4.000000, 0.000000, 4.000000, 4.000000
13.000000, 0.000000, 3932.307617, 4428.205078, 4168.717773, 3898.461426, 4218.461426, 500.000000, 8116.000000, 8368.000000, 0.000000, 0.000000, 0.000000, 0.000000, 622.600006, 1557623316.833420, 4.000000, 4.000000, 0.000000, 4.000000, 4.000000
14.000000, 0.000000, 3907.692139, 4429.743652, 4168.717773, 3915.897461, 4205.127930, 450.000000, 8108.000000, 8354.000000, 0.000000, 0.000000, 0.000000, 0.000000, 630.400009, 1557623316.841220, 4.000000, 4.000000, 0.000000, 4.000000, 4.000000
15.000000, 0.000000, 3880.512695, 4423.589844, 4173.333008, 3924.615234, 4214.358887, 16181.000000, 8113.000000, 8347.000000, 0.000000, 0.000000, 0.000000, 0.000000, 638.200012, 1557623316.849020, 4.000000, 4.000000, 0.000000, 4.000000, 4.000000
16.000000, 0.000000, 3858.974365, 4417.435547, 4177.436035, 3921.538330, 4203.589844, 0.000000, 8114.000000, 8350.000000, 0.000000, 0.000000, 0.000000, 0.000000, 646.100006, 1557623316.856920, 4.000000, 4.000000, 0.000000, 4.000000, 4.000000
17.000000, 0.000000, 3835.897461, 4416.410156, 4168.205078, 3919.487061, 4175.384277, 0.000000, 8115.000000, 8345.000000, 0.000000, 0.000000, 0.000000, 0.000000, 654.100006, 1557623316.864920, 4.000000, 4.000000, 0.000000, 4.000000, 4.000000
18.000000, 0.000000, 3803.076904, 4409.743652, 4164.615234, 3908.205078, 4164.102539, 0.000000, 8114.000000, 8342.000000, 0.000000, 0.000000, 0.000000, 0.000000, 662.100006, 1557623316.872920, 4.000000, 4.000000, 0.000000, 4.000000, 4.000000
19.000000, 0.000000, 3796.923096, 4406.153809, 4179.487305, 3904.102539, 4168.205078, 0.000000, 8108.000000, 8330.000000, 0.000000, 0.000000, 0.000000, 0.000000, 670.100006, 1557623316.880920, 4.000000, 4.000000, 0.000000, 4.000000, 4.000000
20.000000, 0.000000, 3813.845947, 4423.076660, 4177.948730, 3917.435791, 4177.948730, 0.000000, 8111.000000, 8319.000000, 0.000000, 0.000000, 0.000000, 0.000000, 677.800018, 1557623316.888620, 4.000000, 4.000000, 0.000000, 4.000000, 4.000000
21.000000, 0.000000, 3798.974365, 4433.846191, 4184.102539, 3922.051270, 4187.692383, 0.000000, 8110.000000, 8302.000000, 0.000000, 0.000000, 0.000000, 0.000000, 685.600006, 1557623316.896420, 4.000000, 4.000000, 0.000000, 4.000000, 4.000000
22.000000, 0.000000, 3774.871582, 4429.743652, 4182.051270, 3908.205078, 4168.717773, 0.000000, 8106.000000, 8306.000000, 0.000000, 0.000000, 0.000000, 0.000000, 693.400009, 1557623316.904220, 4.000000, 4.000000, 0.000000, 4.000000, 4.000000
23.000000, 0.000000, 3774.871582, 4430.256348, 4154.358887, 3897.948730, 4139.487305, 0.000000, 8098.000000, 8307.000000, 0.000000, 0.000000, 0.000000, 0.000000, 701.200012, 1557623316.912020, 4.000000, 4.000000, 0.000000, 4.000000, 4.000000
24.000000, 0.000000, 3754.358887, 4413.846191, 4154.871582, 3904.102539, 4133.846191, 0.000000, 8097.000000, 8294.000000, 0.000000, 0.000000, 0.000000, 0.000000, 709.100006, 1557623316.919920, 4.000000, 4.000000, 0.000000, 4.000000, 4.000000
25.000000, 0.000000, 3711.281982, 4387.692383, 4166.666504, 3905.128174, 4126.666504, 0.000000, 8100.000000, 8288.000000, 0.000000, 0.000000, 0.000000, 0.000000, 717.100006, 1557623316.927920, 4.000000, 4.000000, 0.000000, 4.000000, 4.000000
26.000000, 0.000000, 3697.435791, 4385.641113, 4162.051270, 3902.563965, 4097.436035, 0.000000, 8095.000000, 8295.000000, 0.000000, 0.000000, 0.000000, 0.000000, 725.100006, 1557623316.935920, 4.000000, 4.000000, 0.000000, 4.000000, 4.000000
27.000000, 0.000000, 3712.307617, 4397.435547, 4157.948730, 3913.845947, 4082.051270, 0.000000, 8097.000000, 8294.000000, 0.000000, 0.000000, 0.000000, 0.000000, 733.100006, 1557623316.943920, 4.000000, 4.000000, 0.000000, 4.000000, 4.000000
28.000000, 0.000000, 3723.589600, 4408.205078, 4165.127930, 3934.871582, 4103.076660, 0.000000, 8106.000000, 8291.000000, 0.000000, 0.000000, 0.000000, 0.000000, 741.100006, 1557623316.951920, 4.000000, 4.000000, 0.000000, 4.000000, 4.000000
29.000000, 0.000000, 3722.563965, 4409.743652, 4170.256348, 3934.871582, 4122.563965, 0.000000, 8103.000000, 8291.000000, 0.000000, 0.000000, 0.000000, 0.000000, 748.800018, 1557623316.959620, 4.000000, 4.000000, 0.000000, 4.000000, 4.000000
30.000000, 0.000000, 3711.794678, 4396.922852, 4156.410156, 3907.179443, 4117.436035, 0.000000, 8114.000000, 8295.000000, 0.000000, 0.000000, 0.000000, 0.000000, 756.600006, 1557623316.967420, 4.000000, 4.000000, 0.000000, 4.000000, 4.000000
31.000000, 0.000000, 3711.281982, 4387.692383, 4150.769043, 3893.845947, 4102.051270, 0.000000, 8116.000000, 8299.000000, 0.000000, 0.000000, 0.000000, 0.000000, 764.600006, 1557623316.975420, 4.000000, 4.000000, 0.000000, 4.000000, 4.000000
32.000000, 0.000000, 3722.563965, 4399.487305, 4155.384277, 3897.435791, 4107.179199, 0.000000, 8120.000000, 8300.000000, 0.000000, 0.000000, 0.000000, 0.000000, 772.400024, 1557623316.983220, 4.000000, 4.000000, 0.000000, 4.000000, 4.000000
33.000000, 0.000000, 3722.051270, 4416.410156, 4158.461426, 3896.923096, 4133.333008, 0.000000, 8127.000000, 8294.000000, 0.000000, 0.000000, 0.000000, 0.000000, 780.200012, 1557623316.991020, 4.000000, 4.000000, 0.000000, 4.000000, 4.000000
34.000000, 0.000000, 3719.487061, 4418.461426, 4168.205078, 3902.051270, 4145.127930, 0.000000, 8138.000000, 8299.000000, 0.000000, 0.000000, 0.000000, 0.000000, 788.100006, 1557623316.998920, 4.000000, 4.000000, 0.000000, 4.000000, 4.000000
35.000000, 0.000000, 3724.615234, 4412.307617, 4162.563965, 3906.153809, 4128.717773, 0.000000, 8143.000000, 8303.000000, 0.000000, 0.000000, 0.000000, 0.000000, 796.100006, 1557623317.006920, 4.000000, 4.000000, 0.000000, 4.000000, 4.000000
36.000000, 0.000000, 3717.435791, 4408.717773, 4162.563965, 3897.435791, 4114.871582, 0.000000, 8143.000000, 8317.000000, 0.000000, 0.000000, 0.000000, 0.000000, 804.100006, 1557623317.014920, 4.000000, 4.000000, 0.000000, 4.000000, 4.000000
37.000000, 0.000000, 3709.743408, 4409.230469, 4171.281738, 3896.410156, 4126.153809, 0.000000, 8154.000000, 8313.000000, 0.000000, 0.000000, 0.000000, 0.000000, 811.900024, 1557623317.022720, 4.000000, 4.000000, 0.000000, 4.000000, 4.000000
38.000000, 0.000000, 3708.717773, 4393.846191, 4157.436035, 3909.743408, 4126.153809, 0.000000, 8157.000000, 8316.000000, 0.000000, 0.000000, 0.000000, 0.000000, 819.600006, 1557623317.030420, 4.000000, 4.000000, 0.000000, 4.000000, 4.000000
39.000000, 0.000000, 3710.256348, 4385.641113, 4148.717773, 3906.666504, 4104.615234, 0.000000, 8158.000000, 8332.000000, 0.000000, 0.000000, 0.000000, 0.000000, 827.400024, 1557623317.038220, 4.000000, 4.000000, 0.000000, 4.000000, 4.000000
40.000000, 0.000000, 3723.076904, 4405.127930, 4140.512695, 3892.820313, 4098.461426, 0.000000, 8160.000000, 8346.000000, 0.000000, 0.000000, 0.000000, 0.000000, 835.200012, 1557623317.046020, 4.000000, 4.000000, 0.000000, 4.000000, 4.000000
41.000000, 0.000000, 3748.205078, 4418.974121, 4139.487305, 3890.256348, 4120.512695, 0.000000, 8155.000000, 8337.000000, 0.000000, 0.000000, 0.000000, 0.000000, 843.200012, 1557623317.054020, 4.000000, 4.000000, 0.000000, 4.000000, 4.000000
42.000000, 0.000000, 3771.794678, 4409.743652, 4149.743652, 3883.589600, 4143.589844, 0.000000, 8159.000000, 8336.000000, 0.000000, 0.000000, 0.000000, 0.000000, 851.200012, 1557623317.062020, 4.000000, 4.000000, 0.000000, 4.000000, 4.000000
43.000000, 0.000000, 3788.717773, 4395.384277, 4143.589844, 3875.384521, 4145.641113, 0.000000, 8162.000000, 8341.000000, 0.000000, 0.000000, 0.000000, 0.000000, 859.000000, 1557623317.069820, 4.000000, 4.000000, 0.000000, 4.000000, 4.000000
44.000000, 0.000000, 3810.256348, 4395.897461, 4153.846191, 3880.000000, 4162.563965, 0.000000, 8154.000000, 8336.000000, 0.000000, 0.000000, 0.000000, 0.000000, 867.000000, 1557623317.077820, 4.000000, 4.000000, 0.000000, 4.000000, 4.000000
45.000000, 0.000000, 3845.128174, 4401.025391, 4166.153809, 3875.897461, 4194.358887, 0.000000, 8149.000000, 8334.000000, 0.000000, 0.000000, 0.000000, 0.000000, 874.800018, 1557623317.085620, 4.000000, 4.000000, 0.000000, 4.000000, 4.000000
46.000000, 0.000000, 3878.974365, 4400.000000, 4160.512695, 3866.153809, 4211.281738, 0.000000, 8147.000000, 8336.000000, 0.000000, 0.000000, 0.000000, 0.000000, 882.600006, 1557623317.093420, 4.000000, 4.000000, 0.000000, 4.000000, 4.000000
47.000000, 0.000000, 3911.281982, 4409.230469, 4168.205078, 3874.358887, 4225.641113, 0.000000, 8148.000000, 8322.000000, 0.000000, 0.000000, 0.000000, 0.000000, 890.300018, 1557623317.101120, 4.000000, 4.000000, 0.000000, 4.000000, 4.000000
48.000000, 0.000000, 3954.358887, 4430.769043, 4165.641113, 3881.025635, 4245.641113, 0.000000, 8142.000000, 8333.000000, 0.000000, 0.000000, 0.000000, 0.000000, 898.200012, 1557623317.109020, 4.000000, 4.000000, 0.000000, 4.000000, 4.000000
49.000000, 0.000000, 3983.589600, 4431.281738, 4162.563965, 3878.974365, 4268.205078, 0.000000, 8134.000000, 8334.000000, 0.000000, 0.000000, 0.000000, 0.000000, 906.000000, 1557623317.116820, 4.000000, 4.000000, 0.000000, 4.000000, 4.000000
50.000000, 0.000000, 3989.743408, 4409.230469, 4168.205078, 3888.205078, 4290.256348, 0.000000, 8143.000000, 8331.000000, 0.000000, 0.000000, 0.000000, 0.000000, 914.000000, 1557623317.124820, 4.000000, 4.000000, 0.000000, 4.000000, 4.000000
51.000000, 0.000000, 4011.281982, 4397.435547, 4163.589844, 3896.410156, 4282.051270, 0.000000, 8138.000000, 8332.000000, 0.000000, 0.000000, 0.000000, 0.000000, 922.000000, 1557623317.132820, 4.000000, 4.000000, 0.000000, 4.000000, 4.000000
52.000000, 0.000000, 4014.358887, 4392.820313, 4160.512695, 3882.051270, 4247.692383, 0.000000, 8133.000000, 8348.000000, 0.000000, 0.000000, 0.000000, 0.000000, 929.900024, 1557623317.140720, 4.000000, 4.000000, 0.000000, 4.000000, 4.000000
53.000000, 0.000000, 3974.358887, 4388.205078, 4154.871582, 3859.487061, 4245.127930, 0.000000, 8132.000000, 8352.000000, 0.000000, 0.000000, 0.000000, 0.000000, 937.900024, 1557623317.148720, 4.000000, 4.000000, 0.000000, 4.000000, 4.000000
54.000000, 0.000000, 3947.692139, 4388.717773, 4149.230469, 3850.256348, 4251.794922, 0.000000, 8135.000000, 8340.000000, 0.000000, 0.000000, 0.000000, 0.000000, 945.700012, 1557623317.156520, 4.000000, 4.000000, 0.000000, 4.000000, 4.000000
55.000000, 0.000000, 3934.358887, 4381.025391, 4147.692383, 3846.666504, 4229.230469, 0.000000, 8140.000000, 8351.000000, 0.000000, 0.000000, 0.000000, 0.000000, 953.500000, 1557623317.164320, 4.000000, 4.000000, 0.000000, 4.000000, 4.000000
56.000000, 0.000000, 3897.948730, 4374.358887, 4152.820313, 3853.333252, 4213.846191, 0.000000, 8144.000000, 8360.000000, 0.000000, 0.000000, 0.000000, 0.000000, 961.300018, 1557623317.172120, 4.000000, 4.000000, 0.000000, 4.000000, 4.000000
57.000000, 0.000000, 3864.615234, 4372.820313, 4152.307617, 3859.487061, 4191.794922, 0.000000, 8142.000000, 8358.000000, 0.000000, 0.000000, 0.000000, 0.000000, 969.100037, 1557623317.179920, 4.000000, 4.000000, 0.000000, 4.000000, 4.000000
58.000000, 0.000000, 3848.717773, 4365.127930, 4142.051270, 3859.487061, 4160.512695, 0.000000, 8141.000000, 8361.000000, 0.000000, 0.000000, 0.000000, 0.000000, 977.100037, 1557623317.187920, 4.000000, 4.000000, 0.000000, 4.000000, 4.000000
59.000000, 0.000000, 3829.230713, 4356.922852, 4157.436035, 3873.333252, 4156.410156, 0.000000, 8148.000000, 8363.000000, 0.000000, 0.000000, 0.000000, 0.000000, 985.000000, 1557623317.195820, 4.000000, 4.000000, 0.000000, 4.000000, 4.000000
60.000000, 0.000000, 3811.794678, 4354.358887, 4153.333008, 3882.563965, 4139.487305, 0.000000, 8155.000000, 8362.000000, 0.000000, 0.000000, 0.000000, 0.000000, 993.000000, 1557623317.203820, 4.000000, 4.000000, 0.000000, 4.000000, 4.000000
61.000000, 0.000000, 3801.025635, 4351.281738, 4125.127930, 3870.256348, 4095.897217, 0.000000, 8153.000000, 8361.000000, 0.000000, 0.000000, 0.000000, 1.000000, 0.900024, 1557623317.211720, 4.000000, 4.000000, 0.000000, 4.000000, 4.000000
62.000000, 0.000000, 3791.281982, 4346.153809, 4136.410156, 3861.538330, 4085.128174, 0.000000, 8151.000000, 8366.000000, 0.000000, 0.000000, 0.000000, 1.000000, 8.900024, 1557623317.219720, 4.000000, 4.000000, 0.000000, 4.000000, 4.000000
63.000000, 0.000000, 3772.820313, 4338.461426, 4143.589844, 3858.974365, 4092.820313, 0.000000, 8156.000000, 8354.000000, 0.000000, 0.000000, 0.000000, 1.000000, 16.700012, 1557623317.227520, 4.000000, 4.000000, 0.000000, 4.000000, 4.000000
64.000000, 0.000000, 3762.051270, 4339.487305, 4136.410156, 3847.692139, 4070.769043, 500.000000, 8162.000000, 8348.000000, 0.000000, 0.000000, 0.000000, 1.000000, 24.500000, 1557623317.235320, 4.000000, 4.000000, 0.000000, 4.000000, 4.000000
65.000000, 0.000000, 3764.102539, 4354.871582, 4144.102539, 3847.179443, 4062.563965, 500.000000, 8160.000000, 8353.000000, 0.000000, 0.000000, 0.000000, 1.000000, 32.299988, 1557623317.243120, 4.000000, 4.000000, 0.000000, 4.000000, 4.000000
66.000000, 0.000000, 3754.871582, 4355.384277, 4147.179199, 3862.051270, 4088.205078, 16207.000000, 8155.000000, 8343.000000, 0.000000, 0.000000, 0.000000, 1.000000, 40.000000, 1557623317.250820, 4.000000, 4.000000, 0.000000, 4.000000, 4.000000
67.000000, 0.000000, 3741.025635, 4336.410156, 4144.102539, 3866.153809, 4087.692139, 500.000000, 8163.000000, 8331.000000, 0.000000, 0.000000, 0.000000, 1.000000, 48.000000, 1557623317.258820, 4.000000, 4.000000, 0.000000, 4.000000, 4.000000
68.000000, 0.000000, 3739.487061, 4348.717773, 4134.358887, 3855.384521, 4058.974365, 16167.000000, 8163.000000, 8327.000000, 0.000000, 0.000000, 0.000000, 1.000000, 56.000000, 1557623317.266820, 4.000000, 4.000000, 0.000000, 4.000000, 4.000000
69.000000, 0.000000, 3731.794678, 4363.589844, 4142.563965, 3846.666504, 4052.307617, 500.000000, 8164.000000, 8332.000000, 0.000000, 0.000000, 0.000000, 1.000000, 64.000000, 1557623317.274820, 4.000000, 4.000000, 0.000000, 4.000000, 4.000000
70.000000, 0.000000, 3711.281982, 4338.461426, 4158.974121, 3850.256348, 4054.358887, 20.000000, 8166.000000, 8329.000000, 0.000000, 0.000000, 0.000000, 1.000000, 71.799988, 1557623317.282620, 4.000000, 4.000000, 0.000000, 4.000000, 4.000000
71.000000, 0.000000, 3708.717773, 4328.717773, 4149.743652, 3848.717773, 4026.666504, 500.000000, 8165.000000, 8326.000000, 0.000000, 0.000000, 0.000000, 1.000000, 79.500000, 1557623317.290320, 4.000000, 4.000000, 0.000000, 4.000000, 4.000000
72.000000, 0.000000, 3714.871582, 4341.538574, 4143.589844, 3834.358887, 4001.538330, 500.000000, 8158.000000, 8321.000000, 0.000000, 0.000000, 0.000000, 1.000000, 87.500000, 1557623317.298320, 4.000000, 4.000000, 0.000000, 4.000000, 4.000000
73.000000, 0.000000, 3698.461426, 4333.846191, 4136.410156, 3828.717773, 4016.410156, 326.000000, 8158.000000, 8320.000000, 0.000000, 0.000000, 0.000000, 1.000000, 95.299988, 1557623317.306120, 4.000000, 4.000000, 0.000000, 4.000000, 4.000000
74.000000, 0.000000, 3675.897461, 4323.076660, 4123.076660, 3834.358887, 4020.512695, 500.000000, 8155.000000, 8325.000000, 0.000000, 0.000000, 0.000000, 1.000000, 103.100037, 1557623317.313920, 4.000000, 4.000000, 0.000000, 4.000000, 4.000000
75.000000, 0.000000, 3683.076904, 4316.922852, 4121.025391, 3842.563965, 3993.845947, 16167.000000, 8152.000000, 8328.000000, 0.000000, 0.000000, 0.000000, 1.000000, 111.000000, 1557623317.321820, 4.000000, 4.000000, 0.000000, 4.000000, 4.000000
76.000000, 0.000000, 3704.102539, 4304.102539, 4114.358887, 3846.666504, 3988.717773, 500.000000, 8148.000000, 8320.000000, 0.000000, 0.000000, 0.000000, 1.000000, 119.000000, 1557623317.329820, 4.000000, 4.000000, 0.000000, 4.000000, 4.000000
77.000000, 0.000000, 3702.563965, 4313.846191, 4118.974121, 3841.538330, 4008.205078, 500.000000, 8143.000000, 8322.000000, 0.000000, 0.000000, 0.000000, 1.000000, 127.000000, 1557623317.337820, 4.000000, 4.000000, 0.000000, 4.000000, 4.000000
78.000000, 0.000000, 3693.333252, 4330.256348, 4131.281738, 3840.000000, 4010.769043, 450.000000, 8138.000000, 8329.000000, 0.000000, 0.000000, 0.000000, 1.000000, 135.000000, 1557623317.345820, 4.000000, 4.000000, 0.000000, 4.000000, 4.000000
79.000000, 0.000000, 3697.435791, 4317.948730, 4140.512695, 3854.871582, 4003.589600, 16167.000000, 8137.000000, 8334.000000, 0.000000, 0.000000, 0.000000, 1.000000, 142.799988, 1557623317.353620, 4.000000, 4.000000, 0.000000, 4.000000, 4.000000
80.000000, 0.000000, 3710.769043, 4310.256348, 4136.922852, 3854.871582, 4006.666504, 450.000000, 8131.000000, 8321.000000, 0.000000, 0.000000, 0.000000, 1.000000, 150.500000, 1557623317.361320, 4.000000, 4.000000, 0.000000, 4.000000, 4.000000
81.000000, 0.000000, 3714.358887, 4321.025391, 4121.538574, 3832.820313, 4006.666504, 450.000000, 8130.000000, 8325.000000, 0.000000, 0.000000, 0.000000, 1.000000, 158.299988, 1557623317.369120, 4.000000, 4.000000, 0.000000, 4.000000, 4.000000
82.000000, 0.000000, 3715.897461, 4331.794922, 4137.436035, 3834.871582, 4002.563965, 450.000000, 8119.000000, 8332.000000, 0.000000, 0.000000, 0.000000, 1.000000, 166.100037, 1557623317.376920, 4.000000, 4.000000, 0.000000, 4.000000, 4.000000
83.000000, 0.000000, 3721.538330, 4333.846191, 4145.641113, 3853.333252, 4004.102539, 16167.000000, 8128.000000, 8335.000000, 0.000000, 0.000000, 0.000000, 1.000000, 174.100037, 1557623317.384920, 4.000000, 4.000000, 0.000000, 4.000000, 4.000000
84.000000, 0.000000, 3719.487061, 4323.076660, 4131.281738, 3850.256348, 4006.153809, 450.000000, 8131.000000, 8327.000000, 0.000000, 0.000000, 0.000000, 1.000000, 182.100037, 1557623317.392920, 4.000000, 4.000000, 0.000000, 4.000000, 4.000000
85.000000, 0.000000, 3717.435791, 4322.051270, 4129.743652, 3840.000000, 3996.923096, 450.000000, 8129.000000, 8332.000000, 0.000000, 0.000000, 0.000000, 1.000000, 190.000000, 1557623317.400820, 4.000000, 4.000000, 0.000000, 4.000000, 4.000000
86.000000, 0.000000, 3718.974365, 4335.897461, 4125.641113, 3837.948730, 3992.820313, 450.000000, 8126.000000, 8336.000000, 0.000000, 0.000000, 0.000000, 1.000000, 198.000000, 1557623317.408820, 4.000000, 4.000000, 0.000000, 4.000000, 4.000000
87.000000, 0.000000, 3718.461426, 4339.487305, 4129.743652, 3842.051270, 4007.692139, 16167.000000, 8137.000000, 8331.000000, 0.000000, 0.000000, 0.000000, 1.000000, 205.799988, 1557623317.416620, 4.000000, 4.000000, 0.000000, 4.000000, 4.000000
88.000000, 0.000000, 3713.845947, 4337.436035, 4137.436035, 3845.640869, 4023.076904, 450.000000, 8137.000000, 8342.000000, 0.000000, 0.000000, 0.000000, 1.000000, 213.600037, 1557623317.424420, 4.000000, 4.000000, 0.000000, 4.000000, 4.000000
89.000000, 0.000000, 3709.743408, 4346.153809, 4138.461426, 3843.076904, 4021.538330, 450.000000, 8141.000000, 8336.000000, 0.000000, 0.000000, 0.000000, 1.000000, 221.299988, 1557623317.432120, 4.000000, 4.000000, 0.000000, 4.000000, 4.000000
90.000000, 0.000000, 3712.307617, 4340.512695, 4137.948730, 3838.974365, 4001.538330, 450.000000, 8142.000000, 8338.000000, 0.000000, 0.000000, 0.000000, 1.000000, 229.100037, 1557623317.439920, 4.000000, 4.000000, 0.000000, 4.000000, 4.000000
91.000000, 0.000000, 3720.000000, 4311.794922, 4120.000000, 3842.051270, 3982.051270, 16167.000000, 8143.000000, 8347.000000, 0.000000, 0.000000, 0.000000, 1.000000, 237.000000, 1557623317.447820, 4.000000, 4.000000, 0.000000, 4.000000, 4.000000
92.000000, 0.000000, 3716.410156, 4308.717773, 4122.051270, 3843.076904, 3988.717773, 450.000000, 8156.000000, 8350.000000, 0.000000, 0.000000, 0.000000, 1.000000, 245.000000, 1557623317.455820, 4.000000, 4.000000, 0.000000, 4.000000, 4.000000
93.000000, 0.000000, 3706.153809, 4338.461426, 4142.563965, 3831.794678, 3999.487061, 450.000000, 8161.000000, 8346.000000, 0.000000, 0.000000, 0.000000, 1.000000, 253.000000, 1557623317.463820, 4.000000, 4.000000, 0.000000, 4.000000, 4.000000
94.000000, 0.000000, 3709.230713, 4342.051270, 4139.487305, 3827.692139, 4002.051270, 450.000000, 8164.000000, 8349.000000, 0.000000, 0.000000, 0.000000, 1.000000, 260.900024, 1557623317.471720, 4.000000, 4.000000, 0.000000, 4.000000, 4.000000
95.000000, 0.000000, 3712.820313, 4329.230469, 4133.846191, 3838.461426, 4018.974365, 16167.000000, 8164.000000, 8365.000000, 0.000000, 0.000000, 0.000000, 1.000000, 268.700012, 1557623317.479520, 4.000000, 4.000000, 0.000000, 4.000000, 4.000000
96.000000, 0.000000, 3712.307617, 4346.153809, 4134.871582, 3831.281982, 4023.589600, 450.000000, 8161.000000, 8364.000000, 0.000000, 0.000000, 0.000000, 1.000000, 276.500000, 1557623317.487320, 4.000000, 4.000000, 0.000000, 4.000000, 4.000000
97.000000, 0.000000, 3716.410156, 4351.281738, 4140.000000, 3817.948730, 4005.128174, 450.000000, 8156.000000, 8354.000000, 0.000000, 0.000000, 0.000000, 1.000000, 284.299988, 1557623317.495120, 4.000000, 4.000000, 0.000000, 4.000000, 4.000000
98.000000, 0.000000, 3721.538330, 4325.127930, 4145.127930, 3829.230713, 4006.666504, 450.000000, 8157.000000, 8355.000000, 0.000000, 0.000000, 0.000000, 1.000000, 292.299988, 1557623317.503120, 4.000000, 4.000000, 0.000000, 4.000000, 4.000000
99.000000, 0.000000, 3732.307617, 4325.127930, 4134.871582, 3842.563965, 4003.076904, 16167.000000, 8155.000000, 8351.000000, 0.000000, 0.000000, 0.000000, 1.000000, 300.000000, 1557623317.510820, 4.000000, 4.000000, 0.000000, 4.000000, 4.000000
100.000000, 0.000000, 3744.102539, 4350.769043, 4120.512695, 3833.845947, 3984.615234, 450.000000, 8152.000000, 8353.000000, 0.000000, 0.000000, 0.000000, 1.000000, 308.000000, 1557623317.518820, 4.000000, 4.000000, 0.000000, 4.000000, 4.000000
101.000000, 0.000000, 3735.384521, 4363.589844, 4120.512695, 3825.128174, 4000.000000, 450.000000, 8151.000000, 8357.000000, 0.000000, 0.000000, 0.000000, 1.000000, 316.000000, 1557623317.526820, 4.000000, 4.000000, 0.000000, 4.000000, 4.000000
102.000000, 0.000000, 3718.974365, 4348.717773, 4135.897461, 3837.948730, 4018.974365, 450.000000, 8146.000000, 8359.000000, 0.000000, 0.000000, 0.000000, 1.000000, 324.000000, 1557623317.534820, 4.000000, 4.000000, 0.000000, 4.000000, 4.000000
103.000000, 0.000000, 3728.205078, 4318.974121, 4128.717773, 3855.384521, 4004.102539, 16167.000000, 8147.000000, 8355.000000, 0.000000, 0.000000, 0.000000, 1.000000, 331.700012, 1557623317.542520, 4.000000, 4.000000, 0.000000, 4.000000, 4.000000
104.000000, 0.000000, 3741.538330, 4322.563965, 4109.743652, 3848.717773, 3998.974365, 450.000000, 8145.000000, 8362.000000, 0.000000, 0.000000, 0.000000, 1.000000, 339.500000, 1557623317.550320, 4.000000, 4.000000, 0.000000, 4.000000, 4.000000
105.000000, 0.000000, 3741.538330, 4346.666504, 4129.743652, 3831.281982, 4006.666504, 450.000000, 8141.000000, 8365.000000, 0.000000, 0.000000, 0.000000, 1.000000, 347.299988, 1557623317.558120, 4.000000, 4.000000, 0.000000, 4.000000, 4.000000
106.000000, 0.000000, 3736.923096, 4326.153809, 4141.538574, 3841.025635, 4004.615234, 450.000000, 8146.000000, 8357.000000, 0.000000, 0.000000, 0.000000, 1.000000, 355.200012, 1557623317.566020, 4.000000, 4.000000, 0.000000, 4.000000, 4.000000
107.000000, 0.000000, 3740.512695, 4312.820313, 4132.307617, 3854.871582, 4002.051270, 16167.000000, 8143.000000, 8357.000000, 0.000000, 0.000000, 0.000000, 1.000000, 363.100037, 1557623317.573920, 4.000000, 4.000000, 0.000000, 4.000000, 4.000000
108.000000, 0.000000, 3751.794678, 4357.435547, 4129.743652, 3838.974365, 4001.025635, 450.000000, 8146.000000, 8363.000000, 0.000000, 0.000000, 0.000000, 1.000000, 371.000000, 1557623317.581820, 4.000000, 4.000000, 0.000000, 4.000000, 4.000000
109.000000, 0.000000, 3753.845947, 4372.307617, 4124.102539, 3830.769043, 4000.000000, 450.000000, 8151.000000, 8361.000000, 0.000000, 0.000000, 0.000000, 1.000000, 379.000000, 1557623317.589820, 4.000000, 4.000000, 0.000000, 4.000000, 4.000000
110.000000, 0.000000, 3754.358887, 4352.820313, 4131.794922, 3840.512695, 3999.487061, 450.000000, 8146.000000, 8348.000000, 0.000000, 0.000000, 0.000000, 1.000000, 387.000000, 1557623317.597820, 4.000000, 4.000000, 0.000000, 4.000000, 4.000000
111.000000, 0.000000, 3757.435791, 4356.410156, 4125.127930, 3836.410156, 3991.281982, 16167.000000, 8144.000000, 8352.000000, 0.000000, 0.000000, 0.000000, 1.000000, 395.000000, 1557623317.605820, 4.000000, 4.000000, 0.000000, 4.000000, 4.000000
112.000000, 0.000000, 3748.717773, 4349.743652, 4109.230469, 3824.102539, 3989.230713, 450.000000, 8148.000000, 8356.000000, 0.000000, 0.000000, 0.000000, 1.000000, 402.799988, 1557623317.613620, 4.000000, 4.000000, 0.000000, 4.000000, 4.000000
113.000000, 0.000000, 3744.102539, 4342.563965, 4118.974121, 3826.666504, 3992.820313, 450.000000, 8144.000000, 8350.000000, 0.000000, 0.000000, 0.000000, 1.000000, 410.500000, 1557623317.621320, 4.000000, 4.000000, 0.000000, 4.000000, 4.000000
114.000000, 0.000000, 3764.615234, 4378.461426, 4124.615234, 3834.358887, 3975.897217, 450.000000, 8144.000000, 8348.000000, 0.000000, 0.000000, 0.000000, 1.000000, 418.299988, 1557623317.629120, 4.000000, 4.000000, 0.000000, 4.000000, 4.000000
115.000000, 0.000000, 3753.333252, 4386.666504, 4131.281738, 3830.256348, 3975.384521, 16167.000000, 8141.000000, 8347.000000, 0.000000, 0.000000, 0.000000, 1.000000, 426.200012, 1557623317.637020, 4.000000, 4.000000, 0.000000, 4.000000, 4.000000
116.000000, 0.000000, 3717.948730, 4345.641113, 4131.794922, 3826.666504, 4006.153809, 450.000000, 8145.000000, 8337.000000, 0.000000, 0.000000, 0.000000, 1.000000, 434.200012, 1557623317.645020, 4.000000, 4.000000, 0.000000, 4.000000, 4.000000
117.000000, 0.000000, 3753.845947, 4344.102539, 4112.307617, 3831.794678, 4000.512695, 450.000000, 8148.000000, 8344.000000, 0.000000, 0.000000, 0.000000, 1.000000, 442.100037, 1557623317.652920, 4.000000, 4.000000, 0.000000, 4.000000, 4.000000
118.000000, 0.000000, 3791.281982, 4367.179199, 4113.333008, 3832.820313, 3967.692139, 450.000000, 8145.000000, 8349.000000, 0.000000, 0.000000, 0.000000, 1.000000, 450.000000, 1557623317.660820, 4.000000, 4.000000, 0.000000, 4.000000, 4.000000
119.000000, 0.000000, 3758.461426, 4363.589844, 4129.230469, 3828.717773, 3976.923096, 16167.000000, 8141.000000, 8339.000000, 0.000000, 0.000000, 0.000000, 1.000000, 458.000012, 1557623317.668820, 4.000000, 4.000000, 0.000000, 4.000000, 4.000000
120.000000, 0.000000, 3747.692139, 4355.384277, 4134.358887, 3830.256348, 4000.000000, 450.000000, 8140.000000, 8340.000000, 0.000000, 0.000000, 0.000000, 1.000000, 465.800013, 1557623317.676620, 4.000000, 4.000000, 0.000000, 4.000000, 4.000000
121.000000, 0.000000, 3775.897461, 4361.025391, 4125.641113, 3830.769043, 3997.435791, 450.000000, 8145.000000, 8347.000000, 0.000000, 0.000000, 0.000000, 1.000000, 473.600012, 1557623317.684420, 4.000000, 4.000000, 0.000000, 4.000000, 4.000000
122.000000, 0.000000, 3780.512695, 4373.333008, 4122.051270, 3830.256348, 3999.487061, 450.000000, 8133.000000, 8352.000000, 0.000000, 0.000000, 0.000000, 1.000000, 481.300013, 1557623317.692120, 4.000000, 4.000000, 0.000000, 4.000000, 4.000000
123.000000, 0.000000, 3778.974365, 4375.384277, 4130.769043, 3838.974365, 4013.845947, 16167.000000, 8139.000000, 8340.000000, 0.000000, 0.000000, 0.000000, 1.000000, 489.200012, 1557623317.700020, 4.000000, 4.000000, 0.000000, 4.000000, 4.000000
124.000000, 0.000000, 3794.358887, 4371.794922, 4131.794922, 3844.102539, 4022.051270, 450.000000, 8134.000000, 8334.000000, 0.000000, 0.000000, 0.000000, 1.000000, 497.000011, 1557623317.707820, 4.000000, 4.000000, 0.000000, 4.000000, 4.000000
125.000000, 0.000000, 3807.179443, 4383.076660, 4138.461426, 3848.205078, 4024.615234, 450.000000, 8136.000000, 8346.000000, 0.000000, 0.000000, 0.000000, 1.000000, 505.000011, 1557623317.715820, 4.000000, 4.000000, 0.000000, 4.000000, 4.000000
126.000000, 0.000000, 3826.666504, 4412.307617, 4134.871582, 3855.384521, 4031.794678, 450.000000, 8142.000000, 8351.000000, 0.000000, 0.000000, 0.000000, 1.000000, 513.000011, 1557623317.723820, 4.000000, 4.000000, 0.000000, 4.000000, 4.000000
127.000000, 0.000000, 3839.487061, 4420.512695, 4126.153809, 3853.845947, 4045.128174, 16167.000000, 8135.000000, 8348.000000, 0.000000, 0.000000, 0.000000, 1.000000, 520.900009, 1557623317.731720, 4.000000, 4.000000, 0.000000, 4.000000, 4.000000
128.000000, 0.000000, 3835.897461, 4402.051270, 4141.025391, 3846.666504, 4040.000000, 500.000000, 8133.000000, 8358.000000, 0.000000, 0.000000, 0.000000, 1.000000, 528.900009, 1557623317.739720, 4.000000, 4.000000, 0.000000, 4.000000, 4.000000
0.000000, 0.000000, 3832.820313, 4391.794922, 4135.384277, 3846.153809, 4021.538330, 500.000000, 8136.000000, 8347.000000, 0.000000, 0.000000, 0.000000, 1.000000, 536.700012, 1557623317.747520, 4.000000, 4.000000, 0.000000, 4.000000, 4.000000
1.000000, 0.000000, 3820.512695, 4387.692383, 4127.692383, 3848.205078, 4015.897217, 500.000000, 8142.000000, 8344.000000, 0.000000, 0.000000, 0.000000, 1.000000, 544.500015, 1557623317.755320, 4.000000, 4.000000, 0.000000, 4.000000, 4.000000
2.000000, 0.000000, 3801.538330, 4376.922852, 4139.487305, 3847.179443, 4011.794678, 16213.000000, 8139.000000, 8349.000000, 0.000000, 0.000000, 0.000000, 1.000000, 552.200012, 1557623317.763020, 4.000000, 4.000000, 0.000000, 4.000000, 4.000000
3.000000, 0.000000, 3811.794678, 4383.589844, 4141.025391, 3861.538330, 4023.589600, 500.000000, 8147.000000, 8351.000000, 0.000000, 0.000000, 0.000000, 1.000000, 560.100014, 1557623317.770920, 4.000000, 4.000000, 0.000000, 4.000000, 4.000000
4.000000, 0.000000, 3846.666504, 4413.846191, 4144.615234, 3887.692139, 4055.897217, 16181.000000, 8152.000000, 8347.000000, 0.000000, 0.000000, 0.000000, 1.000000, 568.100014, 1557623317.778920, 4.000000, 4.000000, 0.000000, 4.000000, 4.000000
5.000000, 0.000000, 3855.897461, 4409.230469, 4138.461426, 3891.281982, 4060.512695, 500.000000, 8149.000000, 8344.000000, 0.000000, 0.000000, 0.000000, 1.000000, 576.100014, 1557623317.786920, 4.000000, 4.000000, 0.000000, 4.000000, 4.000000
6.000000, 0.000000, 3843.589600, 4381.025391, 4134.358887, 3892.307617, 4054.871582, 13.000000, 8149.000000, 8355.000000, 0.000000, 0.000000, 0.000000, 1.000000, 584.100014, 1557623317.794920, 4.000000, 4.000000, 0.000000, 4.000000, 4.000000
7.000000, 0.000000, 3854.358887, 4401.538574, 4149.230469, 3900.000000, 4074.358887, 500.000000, 8153.000000, 8348.000000, 0.000000, 0.000000, 0.000000, 1.000000, 592.000015, 1557623317.802820, 4.000000, 4.000000, 0.000000, 4.000000, 4.000000
8.000000, 0.000000, 3868.717773, 4421.025391, 4147.692383, 3880.000000, 4072.307617, 500.000000, 8161.000000, 8349.000000, 0.000000, 0.000000, 0.000000, 1.000000, 599.800018, 1557623317.810620, 4.000000, 4.000000, 0.000000, 4.000000, 4.000000
9.000000, 0.000000, 3847.692139, 4388.205078, 4144.102539, 3853.333252, 4047.179443, 320.000000, 8152.000000, 8365.000000, 0.000000, 0.000000, 0.000000, 1.000000, 607.600006, 1557623317.818420, 4.000000, 4.000000, 0.000000, 4.000000, 4.000000
10.000000, 0.000000, 3836.410156, 4370.256348, 4137.436035, 3857.948730, 4043.589600, 500.000000, 8157.000000, 8360.000000, 0.000000, 0.000000, 0.000000, 1.000000, 615.400009, 1557623317.826220, 4.000000, 4.000000, 0.000000, 4.000000, 4.000000
11.000000, 0.000000, 3861.538330, 4389.230469, 4129.230469, 3866.666504, 4042.563965, 16108.000000, 8152.000000, 8357.000000, 0.000000, 0.000000, 0.000000, 1.000000, 623.100006, 1557623317.833920, 4.000000, 4.000000, 0.000000, 4.000000, 4.000000
12.000000, 0.000000, 3870.769043, 4403.589844, 4136.922852, 3858.974365, 4037.948730, 500.000000, 8157.000000, 8361.000000, 0.000000, 0.000000, 0.000000, 1.000000, 631.100006, 1557623317.841920, 4.000000, 4.000000, 0.000000, 4.000000, 4.000000
13.000000, 0.000000, 3856.923096, 4400.512695, 4136.410156, 3864.102539, 4044.615234, 500.000000, 8158.000000, 8363.000000, 0.000000, 0.000000, 0.000000, 1.000000, 639.000015, 1557623317.849820, 4.000000, 4.000000, 0.000000, 4.000000, 4.000000
14.000000, 0.000000, 3863.589600, 4395.384277, 4132.820313, 3880.000000, 4050.769043, 450.000000, 8156.000000, 8361.000000, 0.000000, 0.000000, 0.000000, 1.000000, 647.000015, 1557623317.857820, 4.000000, 4.000000, 0.000000, 4.000000, 4.000000
15.000000, 0.000000, 3883.589600, 4402.051270, 4131.281738, 3886.153809, 4056.410156, 16108.000000, 8152.000000, 8367.000000, 0.000000, 0.000000, 0.000000, 1.000000, 655.000015, 1557623317.865820, 4.000000, 4.000000, 0.000000, 4.000000, 4.000000
16.000000, 0.000000, 3886.153809, 4411.281738, 4142.563965, 3887.179443, 4062.051270, 0.000000, 8149.000000, 8364.000000, 0.000000, 0.000000, 0.000000, 1.000000, 662.900009, 1557623317.873720, 4.000000, 4.000000, 0.000000, 4.000000, 4.000000
17.000000, 0.000000, 3874.871582, 4412.820313, 4145.127930, 3879.487061, 4062.051270, 0.000000, 8152.000000, 8357.000000, 0.000000, 0.000000, 0.000000, 1.000000, 670.700012, 1557623317.881520, 4.000000, 4.000000, 0.000000, 4.000000, 4.000000
18.000000, 0.000000, 3880.512695, 4406.153809, 4124.615234, 3876.923096, 4059.487061, 0.000000, 8138.000000, 8356.000000, 0.000000, 0.000000, 0.000000, 1.000000, 678.500015, 1557623317.889320, 4.000000, 4.000000, 0.000000, 4.000000, 4.000000
19.000000, 0.000000, 3897.435791, 4406.153809, 4130.769043, 3879.487061, 4054.871582, 0.000000, 8137.000000, 8365.000000, 0.000000, 0.000000, 0.000000, 1.000000, 686.300018, 1557623317.897120, 4.000000, 4.000000, 0.000000, 4.000000, 4.000000
20.000000, 0.000000, 3895.384521, 4415.384277, 4143.589844, 3868.205078, 4050.256348, 0.000000, 8138.000000, 8368.000000, 0.000000, 0.000000, 0.000000, 1.000000, 694.100006, 1557623317.904920, 4.000000, 4.000000, 0.000000, 4.000000, 4.000000
21.000000, 0.000000, 3881.025635, 4414.358887, 4141.025391, 3862.051270, 4061.025635, 0.000000, 8135.000000, 8363.000000, 0.000000, 0.000000, 0.000000, 1.000000, 702.000015, 1557623317.912820, 4.000000, 4.000000, 0.000000, 4.000000, 4.000000
22.000000, 0.000000, 3888.717773, 4396.922852, 4133.846191, 3877.435791, 4069.743408, 0.000000, 8137.000000, 8372.000000, 0.000000, 0.000000, 0.000000, 1.000000, 710.000015, 1557623317.920820, 4.000000, 4.000000, 0.000000, 4.000000, 4.000000
23.000000, 0.000000, 3911.281982, 4393.333008, 4116.922852, 3886.666504, 4060.000000, 0.000000, 8133.000000, 8364.000000, 0.000000, 0.000000, 0.000000, 1.000000, 718.000000, 1557623317.928820, 4.000000, 4.000000, 0.000000, 4.000000, 4.000000
24.000000, 0.000000, 3914.358887, 4400.512695, 4131.281738, 3887.692139, 4063.076904, 0.000000, 8129.000000, 8356.000000, 0.000000, 0.000000, 0.000000, 1.000000, 726.000000, 1557623317.936820, 4.000000, 4.000000, 0.000000, 4.000000, 4.000000
25.000000, 0.000000, 3907.692139, 4388.205078, 4147.692383, 3900.000000, 4073.333252, 0.000000, 8131.000000, 8354.000000, 0.000000, 0.000000, 0.000000, 1.000000, 733.700012, 1557623317.944520, 4.000000, 4.000000, 0.000000, 4.000000, 4.000000
26.000000, 0.000000, 3916.923096, 4391.281738, 4134.358887, 3894.871582, 4056.410156, 0.000000, 8129.000000, 8351.000000, 0.000000, 0.000000, 0.000000, 1.000000, 741.500000, 1557623317.952320, 4.000000, 4.000000, 0.000000, 4.000000, 4.000000
27.000000, 0.000000, 3925.640869, 4415.384277, 4145.127930, 3875.384521, 4049.230713, 0.000000, 8138.000000, 8353.000000, 0.000000, 0.000000, 0.000000, 1.000000, 749.300018, 1557623317.960120, 4.000000, 4.000000, 0.000000, 4.000000, 4.000000
28.000000, 0.000000, 3925.128174, 4412.307617, 4165.641113, 3884.615234, 4075.897217, 0.000000, 8139.000000, 8350.000000, 0.000000, 0.000000, 0.000000, 1.000000, 757.100006, 1557623317.967920, 4.000000, 4.000000, 0.000000, 4.000000, 4.000000
29.000000, 0.000000, 3934.871582, 4392.307617, 4158.974121, 3901.025635, 4072.307617, 0.000000, 8135.000000, 8349.000000, 0.000000, 0.000000, 0.000000, 1.000000, 765.100006, 1557623317.975920, 4.000000, 4.000000, 0.000000, 4.000000, 4.000000
30.000000, 0.000000, 3947.179443, 4394.358887, 4137.436035, 3888.717773, 4041.025635, 0.000000, 8144.000000, 8342.000000, 0.000000, 0.000000, 0.000000, 1.000000, 773.000000, 1557623317.983820, 4.000000, 4.000000, 0.000000, 4.000000, 4.000000
31.000000, 0.000000, 3944.615234, 4399.487305, 4138.461426, 3874.358887, 4046.666504, 0.000000, 8149.000000, 8339.000000, 0.000000, 0.000000, 0.000000, 1.000000, 781.000000, 1557623317.991820, 4.000000, 4.000000, 0.000000, 4.000000, 4.000000
32.000000, 0.000000, 3942.051270, 4381.025391, 4152.820313, 3888.205078, 4070.256348, 0.000000, 8148.000000, 8344.000000, 0.000000, 0.000000, 0.000000, 1.000000, 789.000000, 1557623317.999820, 4.000000, 4.000000, 0.000000, 4.000000, 4.000000
33.000000, 0.000000, 3943.589600, 4369.230469, 4141.025391, 3895.384521, 4083.589600, 0.000000, 8152.000000, 8344.000000, 0.000000, 0.000000, 0.000000, 1.000000, 796.800018, 1557623318.007620, 4.000000, 4.000000, 0.000000, 4.000000, 4.000000
34.000000, 0.000000, 3946.666504, 4381.025391, 4146.666504, 3883.589600, 4089.230713, 0.000000, 8168.000000, 8336.000000, 0.000000, 0.000000, 0.000000, 1.000000, 804.600006, 1557623318.015420, 4.000000, 4.000000, 0.000000, 4.000000, 4.000000
35.000000, 0.000000, 3962.051270, 4383.589844, 4160.000000, 3883.589600, 4088.717773, 0.000000, 8164.000000, 8328.000000, 0.000000, 0.000000, 0.000000, 1.000000, 812.300018, 1557623318.023120, 4.000000, 4.000000, 0.000000, 4.000000, 4.000000
36.000000, 0.000000, 3981.025635, 4368.205078, 4146.666504, 3895.897461, 4086.153809, 0.000000, 8171.000000, 8338.000000, 0.000000, 0.000000, 0.000000, 1.000000, 820.100006, 1557623318.030920, 4.000000, 4.000000, 0.000000, 4.000000, 4.000000
37.000000, 0.000000, 3977.948730, 4354.871582, 4147.692383, 3906.153809, 4088.717773, 0.000000, 8172.000000, 8325.000000, 0.000000, 0.000000, 0.000000, 1.000000, 828.100006, 1557623318.038920, 4.000000, 4.000000, 0.000000, 4.000000, 4.000000
38.000000, 0.000000, 3952.820313, 4341.538574, 4162.051270, 3908.717773, 4095.897217, 0.000000, 8171.000000, 8330.000000, 0.000000, 0.000000, 0.000000, 1.000000, 836.100006, 1557623318.046920, 4.000000, 4.000000, 0.000000, 4.000000, 4.000000
39.000000, 0.000000, 3941.025635, 4331.794922, 4165.641113, 3906.666504, 4095.897217, 0.000000, 8175.000000, 8340.000000, 0.000000, 0.000000, 0.000000, 1.000000, 844.000000, 1557623318.054820, 4.000000, 4.000000, 0.000000, 4.000000, 4.000000
40.000000, 0.000000, 3947.179443, 4328.205078, 4153.333008, 3893.333252, 4074.358887, 0.000000, 8172.000000, 8333.000000, 0.000000, 0.000000, 0.000000, 1.000000, 852.000000, 1557623318.062820, 4.000000, 4.000000, 0.000000, 4.000000, 4.000000
41.000000, 0.000000, 3944.102539, 4312.820313, 4138.974121, 3878.461426, 4060.000000, 0.000000, 8169.000000, 8338.000000, 0.000000, 0.000000, 0.000000, 1.000000, 859.800018, 1557623318.070620, 4.000000, 4.000000, 0.000000, 4.000000, 4.000000
42.000000, 0.000000, 3951.281982, 4307.692383, 4144.102539, 3882.051270, 4071.281982, 0.000000, 8164.000000, 8339.000000, 0.000000, 0.000000, 0.000000, 1.000000, 867.600006, 1557623318.078420, 4.000000, 4.000000, 0.000000, 4.000000, 4.000000
43.000000, 0.000000, 3963.076904, 4326.153809, 4140.512695, 3883.589600, 4076.923096, 0.000000, 8168.000000, 8333.000000, 0.000000, 0.000000, 0.000000, 1.000000, 875.500000, 1557623318.086320, 4.000000, 4.000000, 0.000000, 4.000000, 4.000000
44.000000, 0.000000, 3952.820313, 4319.487305, 4132.307617, 3881.538330, 4067.692139, 0.000000, 8165.000000, 8326.000000, 0.000000, 0.000000, 0.000000, 1.000000, 883.200012, 1557623318.094020, 4.000000, 4.000000, 0.000000, 4.000000, 4.000000
45.000000, 0.000000, 3960.000000, 4290.769043, 4131.281738, 3893.333252, 4062.563965, 0.000000, 8155.000000, 8335.000000, 0.000000, 0.000000, 0.000000, 1.000000, 891.000000, 1557623318.101820, 4.000000, 4.000000, 0.000000, 4.000000, 4.000000
46.000000, 0.000000, 3991.281982, 4291.281738, 4125.127930, 3901.025635, 4070.769043, 0.000000, 8155.000000, 8333.000000, 0.000000, 0.000000, 0.000000, 1.000000, 899.000000, 1557623318.109820, 4.000000, 4.000000, 0.000000, 4.000000, 4.000000
47.000000, 0.000000, 3992.307617, 4301.538574, 4137.948730, 3892.820313, 4093.333252, 0.000000, 8155.000000, 8330.000000, 0.000000, 0.000000, 0.000000, 1.000000, 907.000000, 1557623318.117820, 4.000000, 4.000000, 0.000000, 4.000000, 4.000000
48.000000, 0.000000, 3988.717773, 4286.666504, 4150.769043, 3898.461426, 4108.717773, 0.000000, 8152.000000, 8328.000000, 0.000000, 0.000000, 0.000000, 1.000000, 915.000000, 1557623318.125820, 4.000000, 4.000000, 0.000000, 4.000000, 4.000000
49.000000, 0.000000, 3998.974365, 4262.563965, 4150.256348, 3918.461426, 4113.846191, 0.000000, 8142.000000, 8343.000000, 0.000000, 0.000000, 0.000000, 1.000000, 922.700012, 1557623318.133520, 4.000000, 4.000000, 0.000000, 4.000000, 4.000000
50.000000, 0.000000, 3980.000000, 4252.307617, 4149.230469, 3912.307617, 4120.000000, 0.000000, 8145.000000, 8351.000000, 0.000000, 0.000000, 0.000000, 1.000000, 930.500000, 1557623318.141320, 4.000000, 4.000000, 0.000000, 4.000000, 4.000000
51.000000, 0.000000, 3959.487061, 4249.743652, 4138.974121, 3895.897461, 4112.307617, 0.000000, 8136.000000, 8345.000000, 0.000000, 0.000000, 0.000000, 1.000000, 938.400024, 1557623318.149220, 4.000000, 4.000000, 0.000000, 4.000000, 4.000000
52.000000, 0.000000, 3964.615234, 4233.846191, 4143.076660, 3913.333252, 4098.974121, 0.000000, 8136.000000, 8351.000000, 0.000000, 0.000000, 0.000000, 1.000000, 946.200012, 1557623318.157020, 4.000000, 4.000000, 0.000000, 4.000000, 4.000000
53.000000, 0.000000, 3973.333252, 4215.897461, 4142.563965, 3931.794678, 4091.281982, 0.000000, 8138.000000, 8349.000000, 0.000000, 0.000000, 0.000000, 1.000000, 954.000000, 1557623318.164820, 4.000000, 4.000000, 0.000000, 4.000000, 4.000000
54.000000, 0.000000, 3968.717773, 4216.922852, 4133.333008, 3915.384521, 4078.974365, 0.000000, 8137.000000, 8346.000000, 0.000000, 0.000000, 0.000000, 1.000000, 962.000000, 1557623318.172820, 4.000000, 4.000000, 0.000000, 4.000000, 4.000000
55.000000, 0.000000, 3958.461426, 4216.410156, 4138.461426, 3896.410156, 4069.743408, 0.000000, 8130.000000, 8352.000000, 0.000000, 0.000000, 0.000000, 1.000000, 970.000000, 1557623318.180820, 4.000000, 4.000000, 0.000000, 4.000000, 4.000000
56.000000, 0.000000, 3965.128174, 4209.230469, 4142.563965, 3905.128174, 4077.435791, 0.000000, 8131.000000, 8347.000000, 0.000000, 0.000000, 0.000000, 1.000000, 978.000000, 1557623318.188820, 4.000000, 4.000000, 0.000000, 4.000000, 4.000000
57.000000, 0.000000, 3982.051270, 4209.230469, 4153.846191, 3921.538330, 4097.436035, 0.000000, 8136.000000, 8351.000000, 0.000000, 0.000000, 0.000000, 1.000000, 986.000000, 1557623318.196820, 4.000000, 4.000000, 0.000000, 4.000000, 4.000000
58.000000, 0.000000, 3982.051270, 4198.974121, 4151.281738, 3918.461426, 4106.666504, 0.000000, 8130.000000, 8360.000000, 0.000000, 0.000000, 0.000000, 1.000000, 993.900024, 1557623318.204720, 4.000000, 4.000000, 0.000000, 4.000000, 4.000000
59.000000, 0.000000, 3971.794678, 4178.974121, 4140.512695, 3908.717773, 4092.307617, 0.000000, 8123.000000, 8370.000000, 0.000000, 0.000000, 0.000000, 2.000000, 1.700012, 1557623318.212520, 4.000000, 4.000000, 0.000000, 4.000000, 4.000000
60.000000, 0.000000, 3974.871582, 4187.692383, 4154.871582, 3915.384521, 4085.128174, 0.000000, 8129.000000, 8358.000000, 0.000000, 0.000000, 0.000000, 2.000000, 9.500000, 1557623318.220320, 4.000000, 4.000000, 0.000000, 4.000000, 4.000000
61.000000, 0.000000, 3974.871582, 4190.256348, 4150.256348, 3925.128174, 4097.436035, 0.000000, 8134.000000, 8357.000000, 0.000000, 0.000000, 0.000000, 2.000000, 17.299988, 1557623318.228120, 4.000000, 4.000000, 0.000000, 4.000000, 4.000000
62.000000, 0.000000, 3965.640869, 4155.384277, 4133.846191, 3920.512695, 4089.230713, 0.000000, 8135.000000, 8364.000000, 0.000000, 0.000000, 0.000000, 2.000000, 25.299988, 1557623318.236120, 4.000000, 4.000000, 0.000000, 4.000000, 4.000000
63.000000, 0.000000, 3961.538330, 4147.179199, 4128.205078, 3907.692139, 4055.384521, 0.000000, 8129.000000, 8362.000000, 0.000000, 0.000000, 0.000000, 2.000000, 33.200012, 1557623318.244020, 4.000000, 4.000000, 0.000000, 4.000000, 4.000000
64.000000, 0.000000, 3957.435791, 4172.307617, 4135.384277, 3896.923096, 4058.974365, 500.000000, 8131.000000, 8345.000000, 0.000000, 0.000000, 0.000000, 2.000000, 41.200012, 1557623318.252020, 4.000000, 4.000000, 0.000000, 4.000000, 4.000000
65.000000, 0.000000, 3947.692139, 4165.127930, 4158.461426, 3894.358887, 4088.205078, 500.000000, 8133.000000, 8343.000000, 0.000000, 0.000000, 0.000000, 2.000000, 49.200012, 1557623318.260020, 4.000000, 4.000000, 0.000000, 4.000000, 4.000000
66.000000, 0.000000, 3936.923096, 4130.769043, 4158.461426, 3905.640869, 4082.563965, 16197.000000, 8140.000000, 8349.000000, 0.000000, 0.000000, 0.000000, 2.000000, 57.100037, 1557623318.267920, 4.000000, 4.000000, 0.000000, 4.000000, 4.000000
67.000000, 0.000000, 3942.051270, 4123.589844, 4147.179199, 3916.923096, 4070.256348, 500.000000, 8138.000000, 8341.000000, 0.000000, 0.000000, 0.000000, 2.000000, 64.799988, 1557623318.275620, 4.000000, 4.000000, 0.000000, 4.000000, 4.000000
68.000000, 0.000000, 3944.615234, 4126.153809, 4145.641113, 3910.256348, 4092.307617, 16163.000000, 8141.000000, 8343.000000, 0.000000, 0.000000, 0.000000, 2.000000, 72.600037, 1557623318.283420, 4.000000, 4.000000, 0.000000, 4.000000, 4.000000
69.000000, 0.000000, 3930.769043, 4113.333008, 4146.666504, 3897.948730, 4101.025391, 500.000000, 8145.000000, 8330.000000, 0.000000, 0.000000, 0.000000, 2.000000, 80.400024, 1557623318.291220, 4.000000, 4.000000, 0.000000, 4.000000, 4.000000
70.000000, 0.000000, 3931.281982, 4103.076660, 4151.794922, 3902.051270, 4073.845947, 28.000000, 8150.000000, 8333.000000, 0.000000, 0.000000, 0.000000, 2.000000, 88.200012, 1557623318.299020, 4.000000, 4.000000, 0.000000, 4.000000, 4.000000
71.000000, 0.000000, 3944.615234, 4086.153809, 4143.076660, 3911.281982, 4061.538330, 500.000000, 8149.000000, 8336.000000, 0.000000, 0.000000, 0.000000, 2.000000, 96.200012, 1557623318.307020, 4.000000, 4.000000, 0.000000, 4.000000, 4.000000
72.000000, 0.000000, 3938.461426, 4074.871582, 4135.384277, 3900.000000, 4072.820313, 500.000000, 8146.000000, 8333.000000, 0.000000, 0.000000, 0.000000, 2.000000, 104.100037, 1557623318.314920, 4.000000, 4.000000, 0.000000, 4.000000, 4.000000
73.000000, 0.000000, 3923.589600, 4091.794678, 4135.897461, 3883.589600, 4076.410156, 16058.000000, 8153.000000, 8324.000000, 0.000000, 0.000000, 0.000000, 2.000000, 112.000000, 1557623318.322820, 4.000000, 4.000000, 0.000000, 4.000000, 4.000000
74.000000, 0.000000, 3923.589600, 4093.333252, 4137.436035, 3881.538330, 4063.589600, 500.000000, 8153.000000, 8325.000000, 0.000000, 0.000000, 0.000000, 2.000000, 120.000000, 1557623318.330820, 4.000000, 4.000000, 0.000000, 4.000000, 4.000000
75.000000, 0.000000, 3913.845947, 4062.051270, 4148.717773, 3885.128174, 4059.487061, 16177.000000, 8150.000000, 8334.000000, 0.000000, 0.000000, 0.000000, 2.000000, 127.799988, 1557623318.338620, 4.000000, 4.000000, 0.000000, 4.000000, 4.000000
76.000000, 0.000000, 3893.333252, 4048.717773, 4151.794922, 3885.640869, 4076.923096, 500.000000, 8154.000000, 8335.000000, 0.000000, 0.000000, 0.000000, 2.000000, 135.600037, 1557623318.346420, 4.000000, 4.000000, 0.000000, 4.000000, 4.000000
77.000000, 0.000000, 3898.461426, 4041.025635, 4157.436035, 3889.230713, 4074.871582, 500.000000, 8152.000000, 8324.000000, 0.000000, 0.000000, 0.000000, 2.000000, 143.299988, 1557623318.354120, 4.000000, 4.000000, 0.000000, 4.000000, 4.000000
78.000000, 0.000000, 3913.333252, 4018.974365, 4162.563965, 3892.820313, 4052.307617, 450.000000, 8157.000000, 8331.000000, 0.000000, 0.000000, 0.000000, 2.000000, 151.200012, 1557623318.362020, 4.000000, 4.000000, 0.000000, 4.000000, 4.000000
79.000000, 0.000000, 3911.281982, 4020.512695, 4147.179199, 3892.307617, 4047.692139, 16177.000000, 8156.000000, 8339.000000, 0.000000, 0.000000, 0.000000, 2.000000, 159.200012, 1557623318.370020, 4.000000, 4.000000, 0.000000, 4.000000, 4.000000
80.000000, 0.000000, 3907.692139, 4030.256348, 4149.230469, 3896.410156, 4066.666504, 450.000000, 8158.000000, 8337.000000, 0.000000, 0.000000, 0.000000, 2.000000, 167.200012, 1557623318.378020, 4.000000, 4.000000, 0.000000, 4.000000, 4.000000
81.000000, 0.000000, 3910.256348, 4029.230713, 4156.922852, 3898.461426, 4077.948730, 450.000000, 8152.000000, 8339.000000, 0.000000, 0.000000, 0.000000, 2.000000, 175.000000, 1557623318.385820, 4.000000, 4.000000, 0.000000, 4.000000, 4.000000
82.000000, 0.000000, 3901.538330, 4021.538330, 4146.666504, 3889.230713, 4066.666504, 450.000000, 8156.000000, 8338.000000, 0.000000, 0.000000, 0.000000, 2.000000, 183.000000, 1557623318.393820, 4.000000, 4.000000, 0.000000, 4.000000, 4.000000
83.000000, 0.000000, 3892.307617, 3993.845947, 4133.846191, 3875.897461, 4047.179443, 16177.000000, 8156.000000, 8340.000000, 0.000000, 0.000000, 0.000000, 2.000000, 191.000000, 1557623318.401820, 4.000000, 4.000000, 0.000000, 4.000000, 4.000000
84.000000, 0.000000, 3897.948730, 3987.692139, 4137.436035, 3869.743408, 4050.769043, 450.000000, 8151.000000, 8343.000000, 0.000000, 0.000000, 0.000000, 2.000000, 198.799988, 1557623318.409620, 4.000000, 4.000000, 0.000000, 4.000000, 4.000000
85.000000, 0.000000, 3900.000000, 4020.000000, 4165.127930, 3873.845947, 4068.205078, 450.000000, 8153.000000, 8349.000000, 0.000000, 0.000000, 0.000000, 2.000000, 206.600037, 1557623318.417420, 4.000000, 4.000000, 0.000000, 4.000000, 4.000000
86.000000, 0.000000, 3882.051270, 4013.333252, 4158.974121, 3878.974365, 4058.461426, 450.000000, 8159.000000, 8340.000000, 0.000000, 0.000000, 0.000000, 2.000000, 214.299988, 1557623318.425120, 4.000000, 4.000000, 0.000000, 4.000000, 4.000000
87.000000, 0.000000, 3858.461426, 3971.281982, 4133.333008, 3875.897461, 4045.128174, 16177.000000, 8168.000000, 8343.000000, 0.000000, 0.000000, 0.000000, 2.000000, 222.200012, 1557623318.433020, 4.000000, 4.000000, 0.000000, 4.000000, 4.000000
88.000000, 0.000000, 3863.076904, 3964.102539, 4144.102539, 3874.358887, 4051.281982, 450.000000, 8152.000000, 8354.000000, 0.000000, 0.000000, 0.000000, 2.000000, 230.100037, 1557623318.440920, 4.000000, 4.000000, 0.000000, 4.000000, 4.000000
89.000000, 0.000000, 3865.640869, 3977.948730, 4154.871582, 3877.948730, 4065.640869, 450.000000, 8161.000000, 8355.000000, 0.000000, 0.000000, 0.000000, 2.000000, 238.000000, 1557623318.448820, 4.000000, 4.000000, 0.000000, 4.000000, 4.000000
90.000000, 0.000000, 3837.435791, 3982.051270, 4155.897461, 3877.435791, 4074.871582, 450.000000, 8163.000000, 8344.000000, 0.000000, 0.000000, 0.000000, 2.000000, 246.000000, 1557623318.456820, 4.000000, 4.000000, 0.000000, 4.000000, 4.000000
91.000000, 0.000000, 3836.923096, 3980.512695, 4155.384277, 3878.974365, 4071.281982, 16177.000000, 8153.000000, 8343.000000, 0.000000, 0.000000, 0.000000, 2.000000, 253.900024, 1557623318.464720, 4.000000, 4.000000, 0.000000, 4.000000, 4.000000
92.000000, 0.000000, 3865.128174, 3978.974365, 4156.410156, 3889.230713, 4067.179443, 450.000000, 8160.000000, 8359.000000, 0.000000, 0.000000, 0.000000, 2.000000, 261.700012, 1557623318.472520, 4.000000, 4.000000, 0.000000, 4.000000, 4.000000
93.000000, 0.000000, 3855.897461, 3975.384521, 4155.384277, 3884.102539, 4064.102539, 450.000000, 8164.000000, 8357.000000, 0.000000, 0.000000, 0.000000, 2.000000, 269.500000, 1557623318.480320, 4.000000, 4.000000, 0.000000, 4.000000, 4.000000
94.000000, 0.000000, 3828.205078, 3956.410156, 4137.948730, 3864.615234, 4045.128174, 450.000000, 8156.000000, 8352.000000, 0.000000, 0.000000, 0.000000, 2.000000, 277.299988, 1557623318.488120, 4.000000, 4.000000, 0.000000, 4.000000, 4.000000
95.000000, 0.000000, 3827.179443, 3938.461426, 4143.076660, 3861.025635, 4042.563965, 16177.000000, 8159.000000, 8352.000000, 0.000000, 0.000000, 0.000000, 2.000000, 285.200012, 1557623318.496020, 4.000000, 4.000000, 0.000000, 4.000000, 4.000000
96.000000, 0.000000, 3840.000000, 3951.281982, 4160.512695, 3866.666504, 4070.769043, 450.000000, 8160.000000, 8354.000000, 0.000000, 0.000000, 0.000000, 2.000000, 293.200012, 1557623318.504020, 4.000000, 4.000000, 0.000000, 4.000000, 4.000000
97.000000, 0.000000, 3848.717773, 3975.384521, 4154.358887, 3861.025635, 4074.871582, 450.000000, 8153.000000, 8356.000000, 0.000000, 0.000000, 0.000000, 2.000000, 301.200012, 1557623318.512020, 4.000000, 4.000000, 0.000000, 4.000000, 4.000000
98.000000, 0.000000, 3853.845947, 3977.948730, 4148.717773, 3851.281982, 4056.410156, 450.000000, 8145.000000, 8364.000000, 0.000000, 0.000000, 0.000000, 2.000000, 309.100037, 1557623318.519920, 4.000000, 4.000000, 0.000000, 4.000000, 4.000000
99.000000, 0.000000, 3841.025635, 3965.128174, 4147.692383, 3851.794678, 4064.102539, 16177.000000, 8149.000000, 8356.000000, 0.000000, 0.000000, 0.000000, 2.000000, 317.100037, 1557623318.527920, 4.000000, 4.000000, 0.000000, 4.000000, 4.000000
100.000000, 0.000000, 3832.307617, 3943.076904, 4147.179199, 3863.076904, 4067.179443, 450.000000, 8148.000000, 8355.000000, 0.000000, 0.000000, 0.000000, 2.000000, 324.799988, 1557623318.535620, 4.000000, 4.000000, 0.000000, 4.000000, 4.000000
101.000000, 0.000000, 3837.435791, 3928.205078, 4143.076660, 3863.589600, 4049.230713, 450.000000, 8139.000000, 8364.000000, 0.000000, 0.000000, 0.000000, 2.000000, 332.600037, 1557623318.543420, 4.000000, 4.000000, 0.000000, 4.000000, 4.000000
102.000000, 0.000000, 3820.512695, 3923.076904, 4147.179199, 3843.589600, 4029.743408, 450.000000, 8144.000000, 8359.000000, 0.000000, 0.000000, 0.000000, 2.000000, 340.400024, 1557623318.551220, 4.000000, 4.000000, 0.000000, 4.000000, 4.000000
103.000000, 0.000000, 3796.410156, 3909.743408, 4164.615234, 3842.051270, 4016.410156, 16177.000000, 8147.000000, 8347.000000, 0.000000, 0.000000, 0.000000, 2.000000, 348.200012, 1557623318.559020, 4.000000, 4.000000, 0.000000, 4.000000, 4.000000
104.000000, 0.000000, 3800.000000, 3913.333252, 4162.563965, 3870.256348, 4033.845947, 450.000000, 8143.000000, 8346.000000, 0.000000, 0.000000, 0.000000, 2.000000, 356.200012, 1557623318.567020, 4.000000, 4.000000, 0.000000, 4.000000, 4.000000
105.000000, 0.000000, 3819.487061, 3931.281982, 4154.358887, 3887.692139, 4048.717773, 450.000000, 8141.000000, 8348.000000, 0.000000, 0.000000, 0.000000, 2.000000, 364.000000, 1557623318.574820, 4.000000, 4.000000, 0.000000, 4.000000, 4.000000
106.000000, 0.000000, 3823.076904, 3926.666504, 4152.820313, 3879.487061, 4025.640869, 450.000000, 8145.000000, 8341.000000, 0.000000, 0.000000, 0.000000, 2.000000, 372.000000, 1557623318.582820, 4.000000, 4.000000, 0.000000, 4.000000, 4.000000
107.000000, 0.000000, 3826.153809, 3929.743408, 4156.410156, 3871.281982, 4025.640869, 16177.000000, 8144.000000, 8337.000000, 0.000000, 0.000000, 0.000000, 2.000000, 380.000000, 1557623318.590820, 4.000000, 4.000000, 0.000000, 4.000000, 4.000000
108.000000, 0.000000, 3838.974365, 3957.948730, 4166.153809, 3876.410156, 4049.230713, 450.000000, 8146.000000, 8338.000000, 0.000000, 0.000000, 0.000000, 2.000000, 387.799988, 1557623318.598620, 4.000000, 4.000000, 0.000000, 4.000000, 4.000000
109.000000, 0.000000, 3836.923096, 3967.179443, 4154.358887, 3872.820313, 4035.384521, 450.000000, 8139.000000, 8335.000000, 0.000000, 0.000000, 0.000000, 2.000000, 395.500000, 1557623318.606320, 4.000000, 4.000000, 0.000000, 4.000000, 4.000000
110.000000, 0.000000, 3828.205078, 3950.256348, 4149.230469, 3862.051270, 4005.640869, 450.000000, 8145.000000, 8332.000000, 0.000000, 0.000000, 0.000000, 2.000000, 403.299988, 1557623318.614120, 4.000000, 4.000000, 0.000000, 4.000000, 4.000000
111.000000, 0.000000, 3831.794678, 3957.948730, 4163.076660, 3868.717773, 4020.000000, 16177.000000, 8148.000000, 8338.000000, 0.000000, 0.000000, 0.000000, 2.000000, 411.100037, 1557623318.621920, 4.000000, 4.000000, 0.000000, 4.000000, 4.000000
112.000000, 0.000000, 3836.410156, 3970.769043, 4164.102539, 3880.000000, 4060.000000, 450.000000, 8149.000000, 8335.000000, 0.000000, 0.000000, 0.000000, 2.000000, 419.000000, 1557623318.629820, 4.000000, 4.000000, 0.000000, 4.000000, 4.000000
113.000000, 0.000000, 3828.717773, 3961.025635, 4170.769043, 3878.461426, 4071.281982, 450.000000, 8150.000000, 8331.000000, 0.000000, 0.000000, 0.000000, 2.000000, 427.000000, 1557623318.637820, 4.000000, 4.000000, 0.000000, 4.000000, 4.000000
114.000000, 0.000000, 3815.384521, 3962.563965, 4164.102539, 3868.205078, 4051.281982, 450.000000, 8150.000000, 8339.000000, 0.000000, 0.000000, 0.000000, 2.000000, 434.900024, 1557623318.645720, 4.000000, 4.000000, 0.000000, 4.000000, 4.000000
115.000000, 0.000000, 3812.307617, 3973.333252, 4150.769043, 3865.128174, 4041.538330, 16177.000000, 8150.000000, 8350.000000, 0.000000, 0.000000, 0.000000, 2.000000, 442.900024, 1557623318.653720, 4.000000, 4.000000, 0.000000, 4.000000, 4.000000
116.000000, 0.000000, 3820.512695, 3980.000000, 4163.589844, 3864.102539, 4052.307617, 450.000000, 8152.000000, 8342.000000, 0.000000, 0.000000, 0.000000, 2.000000, 450.900024, 1557623318.661720, 4.000000, 4.000000, 0.000000, 4.000000, 4.000000
117.000000, 0.000000, 3832.307617, 3979.487061, 4153.846191, 3855.897461, 4034.358887, 450.000000, 8152.000000, 8347.000000, 0.000000, 0.000000, 0.000000, 2.000000, 458.700012, 1557623318.669520, 4.000000, 4.000000, 0.000000, 4.000000, 4.000000
118.000000, 0.000000, 3825.128174, 3967.692139, 4140.000000, 3846.666504, 4005.640869, 450.000000, 8148.000000, 8362.000000, 0.000000, 0.000000, 0.000000, 2.000000, 466.400012, 1557623318.677220, 4.000000, 4.000000, 0.000000, 4.000000, 4.000000
119.000000, 0.000000, 3800.512695, 3950.769043, 4151.281738, 3854.871582, 4009.230713, 16177.000000, 8151.000000, 8369.000000, 0.000000, 0.000000, 0.000000, 2.000000, 474.200012, 1557623318.685020, 4.000000, 4.000000, 0.000000, 4.000000, 4.000000
120.000000, 0.000000, 3783.076904, 3958.461426, 4166.666504, 3870.769043, 4021.538330, 450.000000, 8150.000000, 8364.000000, 0.000000, 0.000000, 0.000000, 2.000000, 482.100012, 1557623318.692920, 4.000000, 4.000000, 0.000000, 4.000000, 4.000000
121.000000, 0.000000, 3782.563965, 3984.615234, 4172.820313, 3860.000000, 4023.589600, 450.000000, 8146.000000, 8365.000000, 0.000000, 0.000000, 0.000000, 2.000000, 490.100014, 1557623318.700920, 4.000000, 4.000000, 0.000000, 4.000000, 4.000000
122.000000, 0.000000, 3800.000000, 3995.897217, 4169.230469, 3842.051270, 4023.076904, 450.000000, 8148.000000, 8368.000000, 0.000000, 0.000000, 0.000000, 2.000000, 498.100014, 1557623318.708920, 4.000000, 4.000000, 0.000000, 4.000000, 4.000000
123.000000, 0.000000, 3818.461426, 4000.000000, 4169.743652, 3849.230713, 4022.051270, 16177.000000, 8148.000000, 8360.000000, 0.000000, 0.000000, 0.000000, 2.000000, 506.000011, 1557623318.716820, 4.000000, 4.000000, 0.000000, 4.000000, 4.000000
124.000000, 0.000000, 3820.512695, 4006.153809, 4159.487305, 3857.435791, 4021.538330, 450.000000, 8154.000000, 8361.000000, 0.000000, 0.000000, 0.000000, 2.000000, 513.800011, 1557623318.724620, 4.000000, 4.000000, 0.000000, 4.000000, 4.000000
125.000000, 0.000000, 3814.358887, 4002.563965, 4149.743652, 3848.205078, 4012.820313, 450.000000, 8151.000000, 8358.000000, 0.000000, 0.000000, 0.000000, 2.000000, 521.600014, 1557623318.732420, 4.000000, 4.000000, 0.000000, 4.000000, 4.000000
126.000000, 0.000000, 3815.384521, 4002.051270, 4155.384277, 3830.769043, 3992.307617, 450.000000, 8154.000000, 8354.000000, 0.000000, 0.000000, 0.000000, 2.000000, 529.400009, 1557623318.740220, 4.000000, 4.000000, 0.000000, 4.000000, 4.000000
127.000000, 0.000000, 3809.230713, 4022.563965, 4158.974121, 3824.102539, 3997.435791, 16177.000000, 8151.000000, 8365.000000, 0.000000, 0.000000, 0.000000, 2.000000, 537.400009, 1557623318.748220, 4.000000, 4.000000, 0.000000, 4.000000, 4.000000
128.000000, 0.000000, 3795.897461, 4029.230713, 4179.487305, 3838.974365, 4031.281982, 500.000000, 8150.000000, 8368.000000, 0.000000, 0.000000, 0.000000, 2.000000, 545.300011, 1557623318.756120, 4.000000, 4.000000, 0.000000, 4.000000, 4.000000
0.000000, 0.000000, 3793.845947, 4016.923096, 4184.102539, 3851.794678, 4035.384521, 500.000000, 8153.000000, 8357.000000, 0.000000, 0.000000, 0.000000, 2.000000, 553.100014, 1557623318.763920, 4.000000, 4.000000, 0.000000, 4.000000, 4.000000
1.000000, 0.000000, 3795.897461, 4032.307617, 4169.743652, 3845.128174, 4012.820313, 500.000000, 8155.000000, 8355.000000, 0.000000, 0.000000, 0.000000, 2.000000, 561.100014, 1557623318.771920, 4.000000, 4.000000, 0.000000, 4.000000, 4.000000
2.000000, 0.000000, 3804.615234, 4050.769043, 4178.461426, 3835.384521, 4003.589600, 16215.000000, 8148.000000, 8373.000000, 0.000000, 0.000000, 0.000000, 2.000000, 569.100014, 1557623318.779920, 4.000000, 4.000000, 0.000000, 4.000000, 4.000000
3.000000, 0.000000, 3812.307617, 4038.461426, 4176.410156, 3829.230713, 4000.512695, 500.000000, 8149.000000, 8377.000000, 0.000000, 0.000000, 0.000000, 2.000000, 577.000015, 1557623318.787820, 4.000000, 4.000000, 0.000000, 4.000000, 4.000000
4.000000, 0.000000, 3801.538330, 4028.717773, 4164.102539, 3830.256348, 4005.640869, 16174.000000, 8152.000000, 8365.000000, 0.000000, 0.000000, 0.000000, 2.000000, 584.800018, 1557623318.795620, 4.000000, 4.000000, 0.000000, 4.000000, 4.000000
5.000000, 0.000000, 3790.769043, 4036.410156, 4162.051270, 3842.563965, 4024.102539, 500.000000, 8148.000000, 8351.000000, 0.000000, 0.000000, 0.000000, 2.000000, 592.600006, 1557623318.803420, 4.000000, 4.000000, 0.000000, 4.000000, 4.000000
6.000000, 0.000000, 3801.538330, 4052.307617, 4165.641113, 3844.102539, 4030.256348, 23.000000, 8145.000000, 8355.000000, 0.000000, 0.000000, 0.000000, 2.000000, 600.400009, 1557623318.811220, 4.000000, 4.000000, 0.000000, 4.000000, 4.000000
7.000000, 0.000000, 3820.000000, 4075.384521, 4176.922852, 3830.256348, 4024.615234, 500.000000, 8141.000000, 8348.000000, 0.000000, 0.000000, 0.000000, 2.000000, 608.200012, 1557623318.819020, 4.000000, 4.000000, 0.000000, 4.000000, 4.000000
8.000000, 0.000000, 3817.948730, 4074.358887, 4176.410156, 3832.820313, 4033.845947, 500.000000, 8134.000000, 8348.000000, 0.000000, 0.000000, 0.000000, 2.000000, 616.100006, 1557623318.826920, 4.000000, 4.000000, 0.000000, 4.000000, 4.000000
9.000000, 0.000000, 3808.205078, 4061.538330, 4171.794922, 3847.692139, 4041.025635, 16062.000000, 8135.000000, 8352.000000, 0.000000, 0.000000, 0.000000, 2.000000, 624.100006, 1557623318.834920, 4.000000, 4.000000, 0.000000, 4.000000, 4.000000
10.000000, 0.000000, 3820.512695, 4075.384521, 4164.102539, 3852.307617, 4030.256348, 500.000000, 8131.000000, 8351.000000, 0.000000, 0.000000, 0.000000, 2.000000, 632.100006, 1557623318.842920, 4.000000, 4.000000, 0.000000, 4.000000, 4.000000
11.000000, 0.000000, 3831.281982, 4083.076904, 4161.538574, 3860.000000, 4035.897217, 16166.000000, 8135.000000, 8347.000000, 0.000000, 0.000000, 0.000000, 2.000000, 640.100006, 1557623318.850920, 4.000000, 4.000000, 0.000000, 4.000000, 4.000000
12.000000, 0.000000, 3814.871582, 4069.743408, 4181.538574, 3868.717773, 4049.743408, 500.000000, 8131.000000, 8353.000000, 0.000000, 0.000000, 0.000000, 2.000000, 648.100006, 1557623318.858920, 4.000000, 4.000000, 0.000000, 4.000000, 4.000000
13.000000, 0.000000, 3805.128174, 4074.871582, 4176.410156, 3864.615234, 4038.461426, 500.000000, 8139.000000, 8341.000000, 0.000000, 0.000000, 0.000000, 2.000000, 655.800018, 1557623318.866620, 4.000000, 4.000000, 0.000000, 4.000000, 4.000000
14.000000, 0.000000, 3813.845947, 4099.487305, 4160.512695, 3862.563965, 4030.256348, 450.000000, 8141.000000, 8337.000000, 0.000000, 0.000000, 0.000000, 2.000000, 663.600006, 1557623318.874420, 4.000000, 4.000000, 0.000000, 4.000000, 4.000000
15.000000, 0.000000, 3810.256348, 4114.871582, 4176.922852, 3864.102539, 4043.589600, 16166.000000, 8145.000000, 8345.000000, 0.000000, 0.000000, 0.000000, 2.000000, 671.400009, 1557623318.882220, 4.000000, 4.000000, 0.000000, 4.000000, 4.000000
16.000000, 0.000000, 3799.487061, 4112.820313, 4192.307617, 3854.358887, 4043.589600, 0.000000, 8146.000000, 8337.000000, 0.000000, 0.000000, 0.000000, 2.000000, 679.200012, 1557623318.890020, 4.000000, 4.000000, 0.000000, 4.000000, 4.000000
17.000000, 0.000000, 3793.845947, 4104.102539, 4193.846191, 3854.358887, 4042.563965, 0.000000, 8152.000000, 8331.000000, 0.000000, 0.000000, 0.000000, 2.000000, 687.000015, 1557623318.897820, 4.000000, 4.000000, 0.000000, 4.000000, 4.000000
18.000000, 0.000000, 3794.358887, 4107.692383, 4181.025391, 3860.000000, 4060.512695, 0.000000, 8157.000000, 8334.000000, 0.000000, 0.000000, 0.000000, 2.000000, 695.000015, 1557623318.905820, 4.000000, 4.000000, 0.000000, 4.000000, 4.000000
19.000000, 0.000000, 3815.897461, 4127.692383, 4176.922852, 3851.281982, 4060.000000, 0.000000, 8163.000000, 8343.000000, 0.000000, 0.000000, 0.000000, 2.000000, 703.000015, 1557623318.913820, 4.000000, 4.000000, 0.000000, 4.000000, 4.000000
20.000000, 0.000000, 3826.153809, 4136.922852, 4188.205078, 3848.205078, 4052.820313, 0.000000, 8167.000000, 8338.000000, 0.000000, 0.000000, 0.000000, 2.000000, 711.000015, 1557623318.921820, 4.000000, 4.000000, 0.000000, 4.000000, 4.000000
21.000000, 0.000000, 3804.615234, 4118.974121, 4180.000000, 3861.538330, 4062.051270, 0.000000, 8169.000000, 8343.000000, 0.000000, 0.000000, 0.000000, 2.000000, 719.000000, 1557623318.929820, 4.000000, 4.000000, 0.000000, 4.000000, 4.000000
22.000000, 0.000000, 3802.051270, 4104.102539, 4170.769043, 3866.666504, 4052.820313, 0.000000, 8172.000000, 8344.000000, 0.000000, 0.000000, 0.000000, 2.000000, 726.700012, 1557623318.937520, 4.000000, 4.000000, 0.000000, 4.000000, 4.000000
23.000000, 0.000000, 3825.128174, 4124.102539, 4164.615234, 3859.487061, 4029.230713, 0.000000, 8178.000000, 8342.000000, 0.000000, 0.000000, 0.000000, 2.000000, 734.500000, 1557623318.945320, 4.000000, 4.000000, 0.000000, 4.000000, 4.000000
24.000000, 0.000000, 3830.769043, 4143.589844, 4166.666504, 3863.076904, 4032.307617, 0.000000, 8185.000000, 8339.000000, 0.000000, 0.000000, 0.000000, 2.000000, 742.300018, 1557623318.953120, 4.000000, 4.000000, 0.000000, 4.000000, 4.000000
25.000000, 0.000000, 3819.487061, 4143.076660, 4178.461426, 3867.692139, 4042.051270, 0.000000, 8183.000000, 8347.000000, 0.000000, 0.000000, 0.000000, 2.000000, 750.100006, 1557623318.960920, 4.000000, 4.000000, 0.000000, 4.000000, 4.000000
26.000000, 0.000000, 3813.333252, 4165.641113, 4170.769043, 3860.512695, 4039.487061, 0.000000, 8177.000000, 8347.000000, 0.000000, 0.000000, 0.000000, 2.000000, 758.100006, 1557623318.968920, 4.000000, 4.000000, 0.000000, 4.000000, 4.000000
27.000000, 0.000000, 3815.897461, 4190.256348, 4173.333008, 3870.256348, 4052.307617, 0.000000, 8179.000000, 8337.000000, 0.000000, 0.000000, 0.000000, 2.000000, 766.000000, 1557623318.976820, 4.000000, 4.000000, 0.000000, 4.000000, 4.000000
28.000000, 0.000000, 3829.743408, 4186.153809, 4181.538574, 3887.179443, 4064.102539, 0.000000, 8176.000000, 8344.000000, 0.000000, 0.000000, 0.000000, 2.000000, 774.000000, 1557623318.984820, 4.000000, 4.000000, 0.000000, 4.000000, 4.000000
29.000000, 0.000000, 3829.743408, 4180.000000, 4182.563965, 3885.640869, 4060.512695, 0.000000, 8167.000000, 8345.000000, 0.000000, 0.000000, 0.000000, 2.000000, 781.800018, 1557623318.992620, 4.000000, 4.000000, 0.000000, 4.000000, 4.000000
30.000000, 0.000000, 3812.820313, 4182.563965, 4187.179199, 3878.461426, 4060.512695, 0.000000, 8161.000000, 8337.000000, 0.000000, 0.000000, 0.000000, 2.000000, 789.600006, 1557623319.000420, 4.000000, 4.000000, 0.000000, 4.000000, 4.000000
31.000000, 0.000000, 3821.538330, 4192.820313, 4171.794922, 3866.153809, 4057.435791, 0.000000, 8157.000000, 8339.000000, 0.000000, 0.000000, 0.000000, 2.000000, 797.300018, 1557623319.008120, 4.000000, 4.000000, 0.000000, 4.000000, 4.000000
32.000000, 0.000000, 3830.256348, 4215.897461, 4164.102539, 3847.179443, 4044.102539, 0.000000, 8152.000000, 8340.000000, 0.000000, 0.000000, 0.000000, 2.000000, 805.100006, 1557623319.015920, 4.000000, 4.000000, 0.000000, 4.000000, 4.000000
33.000000, 0.000000, 3824.615234, 4220.000000, 4169.230469, 3858.461426, 4035.897217, 0.000000, 8152.000000, 8338.000000, 0.000000, 0.000000, 0.000000, 2.000000, 813.100006, 1557623319.023920, 4.000000, 4.000000, 0.000000, 4.000000, 4.000000
34.000000, 0.000000, 3837.948730, 4204.615234, 4168.717773, 3888.717773, 4047.692139, 0.000000, 8148.000000, 8335.000000, 0.000000, 0.000000, 0.000000, 2.000000, 821.100006, 1557623319.031920, 4.000000, 4.000000, 0.000000, 4.000000, 4.000000
35.000000, 0.000000, 3856.923096, 4217.948730, 4170.769043, 3885.640869, 4058.974365, 0.000000, 8138.000000, 8334.000000, 0.000000, 0.000000, 0.000000, 2.000000, 829.100006, 1557623319.039920, 4.000000, 4.000000, 0.000000, 4.000000, 4.000000
36.000000, 0.000000, 3855.384521, 4232.307617, 4168.205078, 3868.205078, 4052.820313, 0.000000, 8139.000000, 8333.000000, 0.000000, 0.000000, 0.000000, 2.000000, 837.000000, 1557623319.047820, 4.000000, 4.000000, 0.000000, 4.000000, 4.000000
37.000000, 0.000000, 3857.948730, 4227.179199, 4176.922852, 3881.538330, 4045.128174, 0.000000, 8140.000000, 8332.000000, 0.000000, 0.000000, 0.000000, 2.000000, 844.800018, 1557623319.055620, 4.000000, 4.000000, 0.000000, 4.000000, 4.000000
38.000000, 0.000000, 3858.974365, 4244.615234, 4183.076660, 3902.051270, 4058.974365, 0.000000, 8142.000000, 8336.000000, 0.000000, 0.000000, 0.000000, 2.000000, 852.600006, 1557623319.063420, 4.000000, 4.000000, 0.000000, 4.000000, 4.000000
39.000000, 0.000000, 3830.256348, 4258.974121, 4166.666504, 3898.974365, 4067.179443, 0.000000, 8140.000000, 8336.000000, 0.000000, 0.000000, 0.000000, 2.000000, 860.400024, 1557623319.071220, 4.000000, 4.000000, 0.000000, 4.000000, 4.000000
40.000000, 0.000000, 3816.923096, 4248.717773, 4156.922852, 3892.820313, 4048.205078, 0.000000, 8146.000000, 8334.000000, 0.000000, 0.000000, 0.000000, 2.000000, 868.300018, 1557623319.079120, 4.000000, 4.000000, 0.000000, 4.000000, 4.000000
41.000000, 0.000000, 3835.897461, 4258.974121, 4169.743652, 3901.538330, 4031.794678, 0.000000, 8144.000000, 8334.000000, 0.000000, 0.000000, 0.000000, 2.000000, 876.000000, 1557623319.086820, 4.000000, 4.000000, 0.000000, 4.000000, 4.000000
42.000000, 0.000000, 3848.205078, 4283.076660, 4184.615234, 3901.025635, 4027.692139, 0.000000, 8143.000000, 8336.000000, 0.000000, 0.000000, 0.000000, 2.000000, 884.000000, 1557623319.094820, 4.000000, 4.000000, 0.000000, 4.000000, 4.000000
43.000000, 0.000000, 3849.743408, 4283.076660, 4165.127930, 3884.615234, 4025.128174, 0.000000, 8149.000000, 8330.000000, 0.000000, 0.000000, 0.000000, 2.000000, 892.000000, 1557623319.102820, 4.000000, 4.000000, 0.000000, 4.000000, 4.000000
44.000000, 0.000000, 3847.179443, 4275.897461, 4154.358887, 3887.692139, 4026.666504, 0.000000, 8150.000000, 8343.000000, 0.000000, 0.000000, 0.000000, 2.000000, 900.000000, 1557623319.110820, 4.000000, 4.000000, 0.000000, 4.000000, 4.000000
45.000000, 0.000000, 3839.487061, 4278.974121, 4182.563965, 3901.538330, 4037.948730, 0.000000, 8152.000000, 8357.000000, 0.000000, 0.000000, 0.000000, 2.000000, 907.900024, 1557623319.118720, 4.000000, 4.000000, 0.000000, 4.000000, 4.000000
46.000000, 0.000000, 3834.871582, 4285.641113, 4184.102539, 3895.897461, 4053.333252, 0.000000, 8154.000000, 8354.000000, 0.000000, 0.000000, 0.000000, 2.000000, 915.700012, 1557623319.126520, 4.000000, 4.000000, 0.000000, 4.000000, 4.000000
47.000000, 0.000000, 3839.487061, 4306.153809, 4172.307617, 3890.769043, 4055.897217, 0.000000, 8156.000000, 8350.000000, 0.000000, 0.000000, 0.000000, 2.000000, 923.500000, 1557623319.134320, 4.000000, 4.000000, 0.000000, 4.000000, 4.000000
48.000000, 0.000000, 3849.230713, 4326.666504, 4173.846191, 3898.974365, 4042.051270, 0.000000, 8159.000000, 8361.000000, 0.000000, 0.000000, 0.000000, 2.000000, 931.300018, 1557623319.142120, 4.000000, 4.000000, 0.000000, 4.000000, 4.000000
49.000000, 0.000000, 3855.384521, 4327.179199, 4158.974121, 3892.307617, 4024.615234, 0.000000, 8156.000000, 8361.000000, 0.000000, 0.000000, 0.000000, 2.000000, 939.100006, 1557623319.149920, 4.000000, 4.000000, 0.000000, 4.000000, 4.000000
50.000000, 0.000000, 3856.410156, 4326.666504, 4155.897461, 3878.974365, 4024.102539, 0.000000, 8155.000000, 8362.000000, 0.000000, 0.000000, 0.000000, 2.000000, 947.000000, 1557623319.157820, 4.000000, 4.000000, 0.000000, 4.000000, 4.000000
51.000000, 0.000000, 3840.512695, 4325.641113, 4167.179199, 3887.179443, 4029.230713, 0.000000, 8155.000000, 8367.000000, 0.000000, 0.000000, 0.000000, 2.000000, 955.000000, 1557623319.165820, 4.000000, 4.000000, 0.000000, 4.000000, 4.000000
52.000000, 0.000000, 3840.512695, 4323.076660, 4174.358887, 3909.743408, 4033.845947, 0.000000, 8155.000000, 8366.000000, 0.000000, 0.000000, 0.000000, 2.000000, 963.000000, 1557623319.173820, 4.000000, 4.000000, 0.000000, 4.000000, 4.000000
53.000000, 0.000000, 3868.717773, 4343.589844, 4172.307617, 3909.230713, 4040.000000, 0.000000, 8153.000000, 8355.000000, 0.000000, 0.000000, 0.000000, 2.000000, 971.000000, 1557623319.181820, 4.000000, 4.000000, 0.000000, 4.000000, 4.000000
54.000000, 0.000000, 3873.333252, 4362.563965, 4161.538574, 3895.384521, 4037.435791, 0.000000, 8152.000000, 8359.000000, 0.000000, 0.000000, 0.000000, 2.000000, 978.799988, 1557623319.189620, 4.000000, 4.000000, 0.000000, 4.000000, 4.000000
55.000000, 0.000000, 3858.974365, 4348.205078, 4163.589844, 3896.923096, 4018.461426, 0.000000, 8148.000000, 8364.000000, 0.000000, 0.000000, 0.000000, 2.000000, 986.500000, 1557623319.197320, 4.000000, 4.000000, 0.000000, 4.000000, 4.000000
56.000000, 0.000000, 3865.128174, 4348.205078, 4162.563965, 3888.205078, 4001.538330, 0.000000, 8150.000000, 8360.000000, 0.000000, 0.000000, 0.000000, 2.000000, 994.299988, 1557623319.205120, 4.000000, 4.000000, 0.000000, 4.000000, 4.000000
57.000000, 0.000000, 3883.589600, 4381.538574, 4156.410156, 3881.538330, 4012.307617, 0.000000, 8147.000000, 8348.000000, 0.000000, 0.000000, 0.000000, 3.000000, 2.100037, 1557623319.212920, 4.000000, 4.000000, 0.000000, 4.000000, 4.000000
58.000000, 0.000000, 3881.025635, 4389.743652, 4160.000000, 3903.076904, 4024.615234, 0.000000, 8136.000000, 8357.000000, 0.000000, 0.000000, 0.000000, 3.000000, 10.100037, 1557623319.220920, 4.000000, 4.000000, 0.000000, 4.000000, 4.000000
59.000000, 0.000000, 3872.307617, 4382.051270, 4155.384277, 3915.384521, 4009.230713, 0.000000, 8138.000000, 8361.000000, 0.000000, 0.000000, 0.000000, 3.000000, 18.000000, 1557623319.228820, 4.000000, 4.000000, 0.000000, 4.000000, 4.000000
60.000000, 0.000000, 3889.230713, 4398.461426, 4162.051270, 3907.692139, 3992.307617, 0.000000, 8133.000000, 8345.000000, 0.000000, 0.000000, 0.000000, 3.000000, 26.000000, 1557623319.236820, 4.000000, 4.000000, 0.000000, 4.000000, 4.000000
61.000000, 0.000000, 3908.205078, 4411.794922, 4166.666504, 3916.410156, 4004.615234, 0.000000, 8143.000000, 8353.000000, 0.000000, 0.000000, 0.000000, 3.000000, 34.000000, 1557623319.244820, 4.000000, 4.000000, 0.000000, 4.000000, 4.000000
62.000000, 0.000000, 3906.153809, 4420.512695, 4163.589844, 3931.281982, 4032.307617, 0.000000, 8141.000000, 8351.000000, 0.000000, 0.000000, 0.000000, 3.000000, 42.000000, 1557623319.252820, 4.000000, 4.000000, 0.000000, 4.000000, 4.000000
63.000000, 0.000000, 3893.845947, 4434.358887, 4174.358887, 3925.640869, 4037.435791, 0.000000, 8136.000000, 8353.000000, 0.000000, 0.000000, 0.000000, 3.000000, 49.799988, 1557623319.260620, 4.000000, 4.000000, 0.000000, 4.000000, 4.000000
64.000000, 0.000000, 3885.640869, 4437.435547, 4172.820313, 3916.923096, 4021.025635, 500.000000, 8140.000000, 8350.000000, 0.000000, 0.000000, 0.000000, 3.000000, 57.700012, 1557623319.268520, 4.000000, 4.000000, 0.000000, 4.000000, 4.000000
65.000000, 0.000000, 3876.410156, 4433.846191, 4173.846191, 3915.384521, 4007.692139, 500.000000, 8144.000000, 8354.000000, 0.000000, 0.000000, 0.000000, 3.000000, 65.500000, 1557623319.276320, 4.000000, 4.000000, 0.000000, 4.000000, 4.000000
66.000000, 0.000000, 3893.845947, 4456.922852, 4176.922852, 3923.589600, 4020.512695, 16218.000000, 8146.000000, 8342.000000, 0.000000, 0.000000, 0.000000, 3.000000, 73.299988, 1557623319.284120, 4.000000, 4.000000, 0.000000, 4.000000, 4.000000
67.000000, 0.000000, 3935.384521, 4488.205078, 4170.256348, 3938.461426, 4045.640869, 500.000000, 8144.000000, 8340.000000, 0.000000, 0.000000, 0.000000, 3.000000, 81.299988, 1557623319.292120, 4.000000, 4.000000, 0.000000, 4.000000, 4.000000
68.000000, 0.000000, 3942.051270, 4489.230469, 4170.769043, 3942.563965, 4044.102539, 16159.000000, 8144.000000, 8344.000000, 0.000000, 0.000000, 0.000000, 3.000000, 89.299988, 1557623319.300120, 4.000000, 4.000000, 0.000000, 4.000000, 4.000000
69.000000, 0.000000, 3922.051270, 4478.974121, 4171.281738, 3936.923096, 4037.948730, 500.000000, 8149.000000, 8348.000000, 0.000000, 0.000000, 0.000000, 3.000000, 97.200012, 1557623319.308020, 4.000000, 4.000000, 0.000000, 4.000000, 4.000000
70.000000, 0.000000, 3931.281982, 4474.358887, 4180.000000, 3944.615234, 4060.000000, 24.000000, 8154.000000, 8332.000000, 0.000000, 0.000000, 0.000000, 3.000000, 105.200012, 1557623319.316020, 4.000000, 4.000000, 0.000000, 4.000000, 4.000000
71.000000, 0.000000, 3958.461426, 4483.076660, 4186.153809, 3961.025635, 4080.512695, 500.000000, 8152.000000, 8334.000000, 0.000000, 0.000000, 0.000000, 3.000000, 113.000000, 1557623319.323820, 4.000000, 4.000000, 0.000000, 4.000000, 4.000000
72.000000, 0.000000, 3962.051270, 4511.281738, 4188.717773, 3964.615234, 4082.563965, 500.000000, 8147.000000, 8342.000000, 0.000000, 0.000000, 0.000000, 3.000000, 120.799988, 1557623319.331620, 4.000000, 4.000000, 0.000000, 4.000000, 4.000000
73.000000, 0.000000, 3954.871582, 4531.281738, 4196.410156, 3960.000000, 4079.487061, 16058.000000, 8153.000000, 8331.000000, 0.000000, 0.000000, 0.000000, 3.000000, 128.500000, 1557623319.339320, 4.000000, 4.000000, 0.000000, 4.000000, 4.000000
74.000000, 0.000000, 3962.051270, 4527.179199, 4177.436035, 3955.384521, 4073.333252, 500.000000, 8160.000000, 8327.000000, 0.000000, 0.000000, 0.000000, 3.000000, 136.400024, 1557623319.347220, 4.000000, 4.000000, 0.000000, 4.000000, 4.000000
75.000000, 0.000000, 3973.845947, 4524.615234, 4166.153809, 3955.897461, 4081.538330, 16172.000000, 8160.000000, 8337.000000, 0.000000, 0.000000, 0.000000, 3.000000, 144.200012, 1557623319.355020, 4.000000, 4.000000, 0.000000, 4.000000, 4.000000
76.000000, 0.000000, 3980.000000, 4540.512695, 4174.358887, 3957.948730, 4104.615234, 500.000000, 8163.000000, 8332.000000, 0.000000, 0.000000, 0.000000, 3.000000, 152.100037, 1557623319.362920, 4.000000, 4.000000, 0.000000, 4.000000, 4.000000
77.000000, 0.000000, 3970.256348, 4547.179199, 4170.256348, 3954.358887, 4108.717773, 500.000000, 8161.000000, 8332.000000, 0.000000, 0.000000, 0.000000, 3.000000, 160.100037, 1557623319.370920, 4.000000, 4.000000, 0.000000, 4.000000, 4.000000
78.000000, 0.000000, 3958.461426, 4538.974121, 4167.179199, 3950.256348, 4102.563965, 450.000000, 8161.000000, 8347.000000, 0.000000, 0.000000, 0.000000, 3.000000, 168.000000, 1557623319.378820, 4.000000, 4.000000, 0.000000, 4.000000, 4.000000
79.000000, 0.000000, 3970.256348, 4541.538574, 4156.410156, 3948.717773, 4100.000000, 16172.000000, 8163.000000, 8341.000000, 0.000000, 0.000000, 0.000000, 3.000000, 176.000000, 1557623319.386820, 4.000000, 4.000000, 0.000000, 4.000000, 4.000000
80.000000, 0.000000, 3988.717773, 4568.717773, 4150.256348, 3943.589600, 4096.922852, 450.000000, 8154.000000, 8343.000000, 0.000000, 0.000000, 0.000000, 3.000000, 183.799988, 1557623319.394620, 4.000000, 4.000000, 0.000000, 4.000000, 4.000000
81.000000, 0.000000, 3986.666504, 4592.307617, 4162.563965, 3942.051270, 4104.615234, 450.000000, 8152.000000, 8352.000000, 0.000000, 0.000000, 0.000000, 3.000000, 191.600037, 1557623319.402420, 4.000000, 4.000000, 0.000000, 4.000000, 4.000000
82.000000, 0.000000, 3983.589600, 4586.153809, 4168.717773, 3953.845947, 4109.230469, 450.000000, 8156.000000, 8350.000000, 0.000000, 0.000000, 0.000000, 3.000000, 199.299988, 1557623319.410120, 4.000000, 4.000000, 0.000000, 4.000000, 4.000000
83.000000, 0.000000, 3989.743408, 4587.179199, 4174.871582, 3958.461426, 4105.641113, 16172.000000, 8160.000000, 8347.000000, 0.000000, 0.000000, 0.000000, 3.000000, 207.100037, 1557623319.417920, 4.000000, 4.000000, 0.000000, 4.000000, 4.000000
84.000000, 0.000000, 3989.743408, 4601.538574, 4170.256348, 3953.845947, 4110.256348, 450.000000, 8154.000000, 8344.000000, 0.000000, 0.000000, 0.000000, 3.000000, 215.100037, 1557623319.425920, 4.000000, 4.000000, 0.000000, 4.000000, 4.000000
85.000000, 0.000000, 4002.563965, 4591.794922, 4155.897461, 3960.512695, 4100.000000, 450.000000, 8148.000000, 8361.000000, 0.000000, 0.000000, 0.000000, 3.000000, 223.100037, 1557623319.433920, 4.000000, 4.000000, 0.000000, 4.000000, 4.000000
86.000000, 0.000000, 4018.461426, 4587.179199, 4149.230469, 3962.051270, 4079.487061, 450.000000, 8149.000000, 8351.000000, 0.000000, 0.000000, 0.000000, 3.000000, 231.100037, 1557623319.441920, 4.000000, 4.000000, 0.000000, 4.000000, 4.000000
87.000000, 0.000000, 4012.820313, 4615.897461, 4155.384277, 3952.820313, 4088.717773, 16172.000000, 8151.000000, 8341.000000, 0.000000, 0.000000, 0.000000, 3.000000, 239.000000, 1557623319.449820, 4.000000, 4.000000, 0.000000, 4.000000, 4.000000
88.000000, 0.000000, 4011.281982, 4638.974121, 4176.410156, 3962.563965, 4114.358887, 450.000000, 8144.000000, 8348.000000, 0.000000, 0.000000, 0.000000, 3.000000, 246.799988, 1557623319.457620, 4.000000, 4.000000, 0.000000, 4.000000, 4.000000
89.000000, 0.000000, 4020.512695, 4644.102539, 4180.000000, 3970.256348, 4128.205078, 450.000000, 8145.000000, 8354.000000, 0.000000, 0.000000, 0.000000, 3.000000, 254.600037, 1557623319.465420, 4.000000, 4.000000, 0.000000, 4.000000, 4.000000
90.000000, 0.000000, 4025.128174, 4656.410156, 4177.436035, 3951.281982, 4123.076660, 450.000000, 8140.000000, 8348.000000, 0.000000, 0.000000, 0.000000, 3.000000, 262.400024, 1557623319.473220, 4.000000, 4.000000, 0.000000, 4.000000, 4.000000
91.000000, 0.000000, 4027.179443, 4657.948730, 4184.102539, 3938.461426, 4111.794922, 16172.000000, 8140.000000, 8348.000000, 0.000000, 0.000000, 0.000000, 3.000000, 270.299988, 1557623319.481120, 4.000000, 4.000000, 0.000000, 4.000000, 4.000000
92.000000, 0.000000, 4034.871582, 4645.641113, 4176.922852, 3944.615234, 4105.127930, 450.000000, 8149.000000, 8350.000000, 0.000000, 0.000000, 0.000000, 3.000000, 278.000000, 1557623319.488820, 4.000000, 4.000000, 0.000000, 4.000000, 4.000000
93.000000, 0.000000, 4044.615234, 4644.615234, 4175.384277, 3951.281982, 4098.974121, 450.000000, 8144.000000, 8347.000000, 0.000000, 0.000000, 0.000000, 3.000000, 286.000000, 1557623319.496820, 4.000000, 4.000000, 0.000000, 4.000000, 4.000000
94.000000, 0.000000, 4066.666504, 4649.743652, 4168.205078, 3957.948730, 4092.820313, 450.000000, 8143.000000, 8355.000000, 0.000000, 0.000000, 0.000000, 3.000000, 294.000000, 1557623319.504820, 4.000000, 4.000000, 0.000000, 4.000000, 4.000000
95.000000, 0.000000, 4077.435791, 4662.051270, 4157.948730, 3954.871582, 4100.000000, 16172.000000, 8137.000000, 8352.000000, 0.000000, 0.000000, 0.000000, 3.000000, 302.000000, 1557623319.512820, 4.000000, 4.000000, 0.000000, 4.000000, 4.000000
96.000000, 0.000000, 4065.640869, 4682.563965, 4163.589844, 3938.461426, 4096.410156, 450.000000, 8138.000000, 8340.000000, 0.000000, 0.000000, 0.000000, 3.000000, 309.900024, 1557623319.520720, 4.000000, 4.000000, 0.000000, 4.000000, 4.000000
97.000000, 0.000000, 4061.538330, 4682.563965, 4160.000000, 3946.666504, 4081.538330, 450.000000, 8136.000000, 8335.000000, 0.000000, 0.000000, 0.000000, 3.000000, 317.700012, 1557623319.528520, 4.000000, 4.000000, 0.000000, 4.000000, 4.000000
98.000000, 0.000000, 4060.000000, 4662.051270, 4160.512695, 3966.153809, 4088.717773, 450.000000, 8135.000000, 8345.000000, 0.000000, 0.000000, 0.000000, 3.000000, 325.500000, 1557623319.536320, 4.000000, 4.000000, 0.000000, 4.000000, 4.000000
99.000000, 0.000000, 4065.128174, 4657.948730, 4164.102539, 3959.487061, 4092.307617, 16172.000000, 8143.000000, 8346.000000, 0.000000, 0.000000, 0.000000, 3.000000, 333.299988, 1557623319.544120, 4.000000, 4.000000, 0.000000, 4.000000, 4.000000
100.000000, 0.000000, 4084.615234, 4671.281738, 4167.692383, 3962.051270, 4083.076904, 450.000000, 8145.000000, 8330.000000, 0.000000, 0.000000, 0.000000, 3.000000, 341.100037, 1557623319.551920, 4.000000, 4.000000, 0.000000, 4.000000, 4.000000
101.000000, 0.000000, 4083.589600, 4675.897461, 4186.666504, 3986.153809, 4093.845947, 450.000000, 8144.000000, 8334.000000, 0.000000, 0.000000, 0.000000, 3.000000, 349.000000, 1557623319.559820, 4.000000, 4.000000, 0.000000, 4.000000, 4.000000
102.000000, 0.000000, 4059.487061, 4675.384277, 4191.794922, 3984.615234, 4108.717773, 450.000000, 8141.000000, 8343.000000, 0.000000, 0.000000, 0.000000, 3.000000, 357.000000, 1557623319.567820, 4.000000, 4.000000, 0.000000, 4.000000, 4.000000
103.000000, 0.000000, 4074.358887, 4688.205078, 4182.051270, 3968.205078, 4103.589844, 16172.000000, 8142.000000, 8338.000000, 0.000000, 0.000000, 0.000000, 3.000000, 365.000000, 1557623319.575820, 4.000000, 4.000000, 0.000000, 4.000000, 4.000000
104.000000, 0.000000, 4113.846191, 4703.076660, 4165.127930, 3973.845947, 4102.563965, 450.000000, 8153.000000, 8339.000000, 0.000000, 0.000000, 0.000000, 3.000000, 372.799988, 1557623319.583620, 4.000000, 4.000000, 0.000000, 4.000000, 4.000000
105.000000, 0.000000, 4111.281738, 4703.076660, 4161.538574, 3975.897217, 4111.281738, 450.000000, 8151.000000, 8342.000000, 0.000000, 0.000000, 0.000000, 3.000000, 380.600037, 1557623319.591420, 4.000000, 4.000000, 0.000000, 4.000000, 4.000000
106.000000, 0.000000, 4087.179443, 4695.897461, 4178.461426, 3961.025635, 4108.717773, 450.000000, 8149.000000, 8338.000000, 0.000000, 0.000000, 0.000000, 3.000000, 388.299988, 1557623319.599120, 4.000000, 4.000000, 0.000000, 4.000000, 4.000000
107.000000, 0.000000, 4095.897217, 4695.384277, 4169.743652, 3959.487061, 4102.051270, 16172.000000, 8154.000000, 8341.000000, 0.000000, 0.000000, 0.000000, 3.000000, 396.100037, 1557623319.606920, 4.000000, 4.000000, 0.000000, 4.000000, 4.000000
108.000000, 0.000000, 4121.025391, 4699.487305, 4162.563965, 3974.871582, 4104.102539, 450.000000, 8154.000000, 8348.000000, 0.000000, 0.000000, 0.000000, 3.000000, 404.000000, 1557623319.614820, 4.000000, 4.000000, 0.000000, 4.000000, 4.000000
109.000000, 0.000000, 4118.461426, 4710.769043, 4167.179199, 3978.461426, 4105.641113, 450.000000, 8150.000000, 8338.000000, 0.000000, 0.000000, 0.000000, 3.000000, 412.000000, 1557623319.622820, 4.000000, 4.000000, 0.000000, 4.000000, 4.000000
110.000000, 0.000000, 4106.666504, 4714.358887, 4159.487305, 3971.281982, 4095.897217, 450.000000, 8153.000000, 8342.000000, 0.000000, 0.000000, 0.000000, 3.000000, 419.900024, 1557623319.630720, 4.000000, 4.000000, 0.000000, 4.000000, 4.000000
111.000000, 0.000000, 4116.922852, 4706.153809, 4165.641113, 3978.461426, 4096.410156, 16172.000000, 8151.000000, 8349.000000, 0.000000, 0.000000, 0.000000, 3.000000, 427.900024, 1557623319.638720, 4.000000, 4.000000, 0.000000, 4.000000, 4.000000
112.000000, 0.000000, 4124.615234, 4712.307617, 4167.179199, 3987.179443, 4111.281738, 450.000000, 8135.000000, 8354.000000, 0.000000, 0.000000, 0.000000, 3.000000, 435.900024, 1557623319.646720, 4.000000, 4.000000, 0.000000, 4.000000, 4.000000
113.000000, 0.000000, 4121.025391, 4724.615234, 4164.102539, 3977.948730, 4103.589844, 450.000000, 8140.000000, 8343.000000, 0.000000, 0.000000, 0.000000, 3.000000, 443.700012, 1557623319.654520, 4.000000, 4.000000, 0.000000, 4.000000, 4.000000
114.000000, 0.000000, 4122.051270, 4723.589844, 4171.794922, 3968.717773, 4088.205078, 450.000000, 8140.000000, 8342.000000, 0.000000, 0.000000, 0.000000, 3.000000, 451.500000, 1557623319.662320, 4.000000, 4.000000, 0.000000, 4.000000, 4.000000
115.000000, 0.000000, 4119.487305, 4722.563965, 4177.948730, 3976.410156, 4110.256348, 16172.000000, 8137.000000, 8352.000000, 0.000000, 0.000000, 0.000000, 3.000000, 459.200012, 1557623319.670020, 4.000000, 4.000000, 0.000000, 4.000000, 4.000000
116.000000, 0.000000, 4105.127930, 4715.897461, 4183.589844, 3992.307617, 4138.461426, 450.000000, 8140.000000, 8347.000000, 0.000000, 0.000000, 0.000000, 3.000000, 467.000012, 1557623319.677820, 4.000000, 4.000000, 0.000000, 4.000000, 4.000000
117.000000, 0.000000, 4102.563965, 4704.102539, 4177.436035, 3994.358887, 4130.256348, 450.000000, 8139.000000, 8344.000000, 0.000000, 0.000000, 0.000000, 3.000000, 475.000011, 1557623319.685820, 4.000000, 4.000000, 0.000000, 4.000000, 4.000000
118.000000, 0.000000, 4113.846191, 4714.871582, 4177.436035, 3994.358887, 4117.436035, 450.000000, 8143.000000, 8347.000000, 0.000000, 0.000000, 0.000000, 3.000000, 483.000011, 1557623319.693820, 4.000000, 4.000000, 0.000000, 4.000000, 4.000000
119.000000, 0.000000, 4121.538574, 4735.897461, 4182.563965, 3996.410156, 4122.563965, 16172.000000, 8145.000000, 8348.000000, 0.000000, 0.000000, 0.000000, 3.000000, 491.000011, 1557623319.701820, 4.000000, 4.000000, 0.000000, 4.000000, 4.000000
120.000000, 0.000000, 4127.179199, 4742.563965, 4175.897461, 3983.589600, 4126.153809, 450.000000, 8138.000000, 8351.000000, 0.000000, 0.000000, 0.000000, 3.000000, 498.900013, 1557623319.709720, 4.000000, 4.000000, 0.000000, 4.000000, 4.000000
121.000000, 0.000000, 4136.922852, 4748.717773, 4182.051270, 3972.307617, 4122.563965, 450.000000, 8140.000000, 8355.000000, 0.000000, 0.000000, 0.000000, 3.000000, 506.700012, 1557623319.717520, 4.000000, 4.000000, 0.000000, 4.000000, 4.000000
122.000000, 0.000000, 4148.717773, 4759.487305, 4184.615234, 3977.948730, 4116.922852, 450.000000, 8143.000000, 8347.000000, 0.000000, 0.000000, 0.000000, 3.000000, 514.500011, 1557623319.725320, 4.000000, 4.000000, 0.000000, 4.000000, 4.000000
123.000000, 0.000000, 4158.461426, 4747.179199, 4173.333008, 3982.051270, 4106.666504, 16172.000000, 8141.000000, 8354.000000, 0.000000, 0.000000, 0.000000, 3.000000, 522.300011, 1557623319.733120, 4.000000, 4.000000, 0.000000, 4.000000, 4.000000
124.000000, 0.000000, 4157.948730, 4727.692383, 4162.563965, 3976.923096, 4097.436035, 450.000000, 8141.000000, 8364.000000, 0.000000, 0.000000, 0.000000, 3.000000, 530.100014, 1557623319.740920, 4.000000, 4.000000, 0.000000, 4.000000, 4.000000
125.000000, 0.000000, 4151.281738, 4734.358887, 4156.922852, 3981.025635, 4110.769043, 450.000000, 8145.000000, 8358.000000, 0.000000, 0.000000, 0.000000, 3.000000, 538.100014, 1557623319.748920, 4.000000, 4.000000, 0.000000, 4.000000, 4.000000
126.000000, 0.000000, 4155.897461, 4748.717773, 4168.717773, 3991.281982, 4126.666504, 450.000000, 8147.000000, 8352.000000, 0.000000, 0.000000, 0.000000, 3.000000, 546.100014, 1557623319.756920, 4.000000, 4.000000, 0.000000, 4.000000, 4.000000
127.000000, 0.000000, 4173.333008, 4750.769043, 4165.127930, 3988.717773, 4108.205078, 16172.000000, 8152.000000, 8353.000000, 0.000000, 0.000000, 0.000000, 3.000000, 554.100014, 1557623319.764920, 4.000000, 4.000000, 0.000000, 4.000000, 4.000000
128.000000, 0.000000, 4174.358887, 4751.794922, 4157.948730, 3981.025635, 4092.820313, 500.000000, 8147.000000, 8364.000000, 0.000000, 0.000000, 0.000000, 3.000000, 562.100014, 1557623319.772920, 4.000000, 4.000000, 0.000000, 4.000000, 4.000000
0.000000, 0.000000, 4161.025391, 4754.871582, 4175.897461, 3985.640869, 4121.025391, 500.000000, 8147.000000, 8357.000000, 0.000000, 0.000000, 0.000000, 3.000000, 569.800011, 1557623319.780620, 4.000000, 4.000000, 0.000000, 4.000000, 4.000000
1.000000, 0.000000, 4169.230469, 4750.769043, 4181.025391, 3996.923096, 4142.051270, 500.000000, 8146.000000, 8355.000000, 0.000000, 0.000000, 0.000000, 3.000000, 577.600014, 1557623319.788420, 4.000000, 4.000000, 0.000000, 4.000000, 4.000000
2.000000, 0.000000, 4178.974121, 4748.205078, 4183.076660, 3996.923096, 4130.769043, 16201.000000, 8156.000000, 8356.000000, 0.000000, 0.000000, 0.000000, 3.000000, 585.400009, 1557623319.796220, 4.000000, 4.000000, 0.000000, 4.000000, 4.000000
3.000000, 0.000000, 4152.307617, 4756.410156, 4189.230469, 3987.692139, 4119.487305, 500.000000, 8151.000000, 8354.000000, 0.000000, 0.000000, 0.000000, 3.000000, 593.400009, 1557623319.804220, 4.000000, 4.000000, 0.000000, 4.000000, 4.000000
4.000000, 0.000000, 4144.615234, 4757.948730, 4175.897461, 3987.179443, 4110.769043, 16147.000000, 8147.000000, 8360.000000, 0.000000, 0.000000, 0.000000, 3.000000, 601.200012, 1557623319.812020, 4.000000, 4.000000, 0.000000, 4.000000, 4.000000
5.000000, 0.000000, 4183.589844, 4751.794922, 4158.974121, 3991.794678, 4100.000000, 500.000000, 8145.000000, 8357.000000, 0.000000, 0.000000, 0.000000, 3.000000, 609.100006, 1557623319.819920, 4.000000, 4.000000, 0.000000, 4.000000, 4.000000
6.000000, 0.000000, 4185.127930, 4758.461426, 4154.871582, 3986.153809, 4100.000000, 18.000000, 8143.000000, 8350.000000, 0.000000, 0.000000, 0.000000, 3.000000, 617.100006, 1557623319.827920, 4.000000, 4.000000, 0.000000, 4.000000, 4.000000
7.000000, 0.000000, 4153.333008, 4788.205078, 4173.846191, 3977.948730, 4111.281738, 500.000000, 8142.000000, 8352.000000, 0.000000, 0.000000, 0.000000, 3.000000, 625.100006, 1557623319.835920, 4.000000, 4.000000, 0.000000, 4.000000, 4.000000
8.000000, 0.000000, 4167.692383, 4802.563965, 4183.076660, 3983.589600, 4121.025391, 500.000000, 8148.000000, 8354.000000, 0.000000, 0.000000, 0.000000, 3.000000, 632.900009, 1557623319.843720, 4.000000, 4.000000, 0.000000, 4.000000, 4.000000
9.000000, 0.000000, 4210.256348, 4787.692383, 4163.076660, 3996.410156, 4123.076660, 16063.000000, 8148.000000, 8361.000000, 0.000000, 0.000000, 0.000000, 3.000000, 640.600006, 1557623319.851420, 4.000000, 4.000000, 0.000000, 4.000000, 4.000000
10.000000, 0.000000, 4223.589844, 4778.974121, 4153.333008, 3993.333252, 4121.025391, 500.000000, 8144.000000, 8351.000000, 0.000000, 0.000000, 0.000000, 3.000000, 648.400009, 1557623319.859220, 4.000000, 4.000000, 0.000000, 4.000000, 4.000000
11.000000, 0.000000, 4212.820313, 4778.461426, 4153.333008, 3988.717773, 4130.256348, 16173.000000, 8148.000000, 8351.000000, 0.000000, 0.000000, 0.000000, 3.000000, 656.200012, 1557623319.867020, 4.000000, 4.000000, 0.000000, 4.000000, 4.000000
12.000000, 0.000000, 4203.076660, 4783.076660, 4162.051270, 3991.281982, 4131.794922, 500.000000, 8145.000000, 8348.000000, 0.000000, 0.000000, 0.000000, 3.000000, 664.200012, 1557623319.875020, 4.000000, 4.000000, 0.000000, 4.000000, 4.000000
13.000000, 0.000000, 4192.820313, 4787.179199, 4169.230469, 3989.743408, 4120.000000, 500.000000, 8146.000000, 8360.000000, 0.000000, 0.000000, 0.000000, 3.000000, 672.200012, 1557623319.883020, 4.000000, 4.000000, 0.000000, 4.000000, 4.000000
14.000000, 0.000000, 4185.641113, 4778.974121, 4169.230469, 3996.923096, 4126.666504, 450.000000, 8149.000000, 8356.000000, 0.000000, 0.000000, 0.000000, 3.000000, 680.100006, 1557623319.890920, 4.000000, 4.000000, 0.000000, 4.000000, 4.000000
15.000000, 0.000000, 4200.512695, 4782.051270, 4170.256348, 4003.076904, 4127.179199, 16173.000000, 8144.000000, 8351.000000, 0.000000, 0.000000, 0.000000, 3.000000, 688.100006, 1557623319.898920, 4.000000, 4.000000, 0.000000, 4.000000, 4.000000
16.000000, 0.000000, 4219.487305, 4798.974121, 4162.563965, 3995.384521, 4117.948730, 0.000000, 8149.000000, 8350.000000, 0.000000, 0.000000, 0.000000, 3.000000, 696.100006, 1557623319.906920, 4.000000, 4.000000, 0.000000, 4.000000, 4.000000
17.000000, 0.000000, 4207.179199, 4786.153809, 4169.743652, 3998.974365, 4124.102539, 0.000000, 8149.000000, 8356.000000, 0.000000, 0.000000, 0.000000, 3.000000, 704.100006, 1557623319.914920, 4.000000, 4.000000, 0.000000, 4.000000, 4.000000
18.000000, 0.000000, 4197.436035, 4776.922852, 4175.384277, 3994.871582, 4129.743652, 0.000000, 8153.000000, 8358.000000, 0.000000, 0.000000, 0.000000, 3.000000, 711.900009, 1557623319.922720, 4.000000, 4.000000, 0.000000, 4.000000, 4.000000
19.000000, 0.000000, 4208.205078, 4797.948730, 4166.153809, 3972.820313, 4136.410156, 0.000000, 8155.000000, 8353.000000, 0.000000, 0.000000, 0.000000, 3.000000, 719.600006, 1557623319.930420, 4.000000, 4.000000, 0.000000, 4.000000, 4.000000
20.000000, 0.000000, 4207.692383, 4789.743652, 4172.307617, 3983.076904, 4151.281738, 0.000000, 8160.000000, 8353.000000, 0.000000, 0.000000, 0.000000, 3.000000, 727.400024, 1557623319.938220, 4.000000, 4.000000, 0.000000, 4.000000, 4.000000
21.000000, 0.000000, 4198.974121, 4766.153809, 4167.179199, 4002.051270, 4150.769043, 0.000000, 8156.000000, 8356.000000, 0.000000, 0.000000, 0.000000, 3.000000, 735.200012, 1557623319.946020, 4.000000, 4.000000, 0.000000, 4.000000, 4.000000
22.000000, 0.000000, 4196.922852, 4780.512695, 4163.076660, 3983.076904, 4141.538574, 0.000000, 8150.000000, 8359.000000, 0.000000, 0.000000, 0.000000, 3.000000, 743.100006, 1557623319.953920, 4.000000, 4.000000, 0.000000, 4.000000, 4.000000
23.000000, 0.000000, 4216.410156, 4798.461426, 4174.358887, 3984.615234, 4150.769043, 0.000000, 8152.000000, 8350.000000, 0.000000, 0.000000, 0.000000, 3.000000, 751.000000, 1557623319.961820, 4.000000, 4.000000, 0.000000, 4.000000, 4.000000
24.000000, 0.000000, 4251.794922, 4809.230469, 4165.641113, 4010.256348, 4157.948730, 0.000000, 8162.000000, 8348.000000, 0.000000, 0.000000, 0.000000, 3.000000, 759.000000, 1557623319.969820, 4.000000, 4.000000, 0.000000, 4.000000, 4.000000
25.000000, 0.000000, 4266.153809, 4819.487305, 4166.153809, 4001.538330, 4151.281738, 0.000000, 8156.000000, 8360.000000, 0.000000, 0.000000, 0.000000, 3.000000, 767.000000, 1557623319.977820, 4.000000, 4.000000, 0.000000, 4.000000, 4.000000
26.000000, 0.000000, 4247.692383, 4806.153809, 4174.358887, 3984.615234, 4157.948730, 0.000000, 8157.000000, 8360.000000, 0.000000, 0.000000, 0.000000, 3.000000, 774.800018, 1557623319.985620, 4.000000, 4.000000, 0.000000, 4.000000, 4.000000
27.000000, 0.000000, 4227.692383, 4792.307617, 4169.743652, 3987.179443, 4154.358887, 0.000000, 8154.000000, 8349.000000, 0.000000, 0.000000, 0.000000, 3.000000, 782.600006, 1557623319.993420, 4.000000, 4.000000, 0.000000, 4.000000, 4.000000
28.000000, 0.000000, 4216.922852, 4798.974121, 4161.538574, 3978.461426, 4135.897461, 0.000000, 8148.000000, 8362.000000, 0.000000, 0.000000, 0.000000, 3.000000, 790.300018, 1557623320.001120, 4.000000, 4.000000, 0.000000, 4.000000, 4.000000
29.000000, 0.000000, 4210.256348, 4790.256348, 4154.358887, 3978.461426, 4136.410156, 0.000000, 8152.000000, 8361.000000, 0.000000, 0.000000, 0.000000, 3.000000, 798.300018, 1557623320.009120, 4.000000, 4.000000, 0.000000, 4.000000, 4.000000
30.000000, 0.000000, 4213.846191, 4771.794922, 4167.692383, 4005.128174, 4152.307617, 0.000000, 8146.000000, 8353.000000, 0.000000, 0.000000, 0.000000, 3.000000, 806.200012, 1557623320.017020, 4.000000, 4.000000, 0.000000, 4.000000, 4.000000
31.000000, 0.000000, 4220.000000, 4783.076660, 4178.974121, 4017.948730, 4156.922852, 0.000000, 8142.000000, 8349.000000, 0.000000, 0.000000, 0.000000, 3.000000, 814.000000, 1557623320.024820, 4.000000, 4.000000, 0.000000, 4.000000, 4.000000
32.000000, 0.000000, 4227.179199, 4803.076660, 4174.871582, 4003.076904, 4145.127930, 0.000000, 8148.000000, 8354.000000, 0.000000, 0.000000, 0.000000, 3.000000, 822.000000, 1557623320.032820, 4.000000, 4.000000, 0.000000, 4.000000, 4.000000
33.000000, 0.000000, 4239.487305, 4806.666504, 4174.871582, 3988.717773, 4141.538574, 0.000000, 8146.000000, 8347.000000, 0.000000, 0.000000, 0.000000, 3.000000, 829.900024, 1557623320.040720, 4.000000, 4.000000, 0.000000, 4.000000, 4.000000
34.000000, 0.000000, 4249.230469, 4812.307617, 4173.846191, 3992.820313, 4158.974121, 0.000000, 8145.000000, 8341.000000, 0.000000, 0.000000, 0.000000, 3.000000, 837.700012, 1557623320.048520, 4.000000, 4.000000, 0.000000, 4.000000, 4.000000
35.000000, 0.000000, 4247.179199, 4812.820313, 4182.563965, 4002.051270, 4182.563965, 0.000000, 8147.000000, 8348.000000, 0.000000, 0.000000, 0.000000, 3.000000, 845.500000, 1557623320.056320, 4.000000, 4.000000, 0.000000, 4.000000, 4.000000
36.000000, 0.000000, 4236.410156, 4795.384277, 4186.666504, 4001.538330, 4192.307617, 0.000000, 8147.000000, 8345.000000, 0.000000, 0.000000, 0.000000, 3.000000, 853.300018, 1557623320.064120, 4.000000, 4.000000, 0.000000, 4.000000, 4.000000
37.000000, 0.000000, 4252.820313, 4794.358887, 4183.589844, 4002.563965, 4183.589844, 0.000000, 8150.000000, 8342.000000, 0.000000, 0.000000, 0.000000, 3.000000, 861.000000, 1557623320.071820, 4.000000, 4.000000, 0.000000, 4.000000, 4.000000
