title:rishi frnd happy 1, recorded:12.05.19 15.39.25, timestamp started:2019-05-12T15:39:25.796190+05:30, sampling:128, subject:, labels:COUNTER INTERPOLATED AF3 T7 Pz T8 AF4 RAW_CQ GYROX GYROY MARKER MARKER_HARDWARE SYNC TIME_STAMP_s TIME_STAMP_ms TimeStamp CQ_AF3 CQ_T7 CQ_Pz CQ_T8 CQ_AF4, chan:20, samples:16301, units:emotiv
38.000000, 0.000000, 4386.666504, 4214.358887, 4088.205078, 4340.512695, 4049.230713, 0.000000, 8138.000000, 8348.000000, 1.000000, 3.000000, 0.000000, 0.000000, 0.000000, 1557655765.796190, 4.000000, 4.000000, 0.000000, 4.000000, 4.000000
39.000000, 0.000000, 4382.563965, 4190.256348, 4160.000000, 4355.897461, 4043.589600, 0.000000, 8134.000000, 8357.000000, 0.000000, 0.000000, 0.000000, 0.000000, 7.799999, 1557655765.803990, 4.000000, 4.000000, 0.000000, 4.000000, 4.000000
40.000000, 0.000000, 4364.102539, 4116.922852, 4156.410156, 4340.512695, 4015.897217, 0.000000, 8137.000000, 8362.000000, 0.000000, 0.000000, 0.000000, 0.000000, 15.700001, 1557655765.811890, 4.000000, 4.000000, 0.000000, 4.000000, 4.000000
41.000000, 0.000000, 4354.871582, 4075.897217, 4162.051270, 4336.410156, 3996.923096, 0.000000, 8140.000000, 8350.000000, 0.000000, 0.000000, 0.000000, 0.000000, 23.700001, 1557655765.819890, 4.000000, 4.000000, 0.000000, 4.000000, 4.000000
42.000000, 0.000000, 4351.794922, 4084.615234, 4228.205078, 4352.820313, 4005.640869, 0.000000, 8144.000000, 8350.000000, 0.000000, 0.000000, 0.000000, 0.000000, 31.500000, 1557655765.827690, 4.000000, 4.000000, 0.000000, 4.000000, 4.000000
43.000000, 0.000000, 4348.205078, 4068.717773, 4089.230713, 4352.820313, 4008.717773, 0.000000, 8140.000000, 8360.000000, 0.000000, 0.000000, 0.000000, 0.000000, 39.500004, 1557655765.835690, 4.000000, 4.000000, 0.000000, 4.000000, 4.000000
44.000000, 0.000000, 4341.025391, 4042.051270, 4136.922852, 4341.538574, 3994.871582, 0.000000, 8143.000000, 8348.000000, 0.000000, 0.000000, 0.000000, 0.000000, 47.500004, 1557655765.843690, 4.000000, 4.000000, 0.000000, 4.000000, 4.000000
45.000000, 0.000000, 4334.871582, 4043.076904, 4163.076660, 4331.281738, 3992.820313, 0.000000, 8146.000000, 8348.000000, 0.000000, 0.000000, 0.000000, 0.000000, 55.299999, 1557655765.851490, 4.000000, 4.000000, 0.000000, 4.000000, 4.000000
46.000000, 0.000000, 4337.948730, 4058.974365, 4160.000000, 4326.666504, 4000.512695, 0.000000, 8148.000000, 8358.000000, 0.000000, 0.000000, 0.000000, 0.000000, 63.100002, 1557655765.859290, 4.000000, 4.000000, 0.000000, 4.000000, 4.000000
47.000000, 0.000000, 4351.281738, 4057.948730, 4217.948730, 4350.256348, 4006.666504, 0.000000, 8148.000000, 8351.000000, 0.000000, 0.000000, 0.000000, 0.000000, 70.799999, 1557655765.866990, 4.000000, 4.000000, 0.000000, 4.000000, 4.000000
48.000000, 0.000000, 4362.563965, 4041.025635, 4089.230713, 4375.897461, 4002.563965, 0.000000, 8150.000000, 8348.000000, 0.000000, 0.000000, 0.000000, 0.000000, 78.600002, 1557655765.874790, 4.000000, 4.000000, 0.000000, 4.000000, 4.000000
49.000000, 0.000000, 4358.974121, 4031.281982, 4160.512695, 4361.025391, 3989.743408, 0.000000, 8150.000000, 8344.000000, 0.000000, 0.000000, 0.000000, 0.000000, 86.500004, 1557655765.882690, 4.000000, 4.000000, 0.000000, 4.000000, 4.000000
50.000000, 0.000000, 4347.692383, 4042.563965, 4205.127930, 4347.179199, 3992.307617, 0.000000, 8148.000000, 8342.000000, 0.000000, 0.000000, 0.000000, 0.000000, 94.500004, 1557655765.890690, 4.000000, 4.000000, 0.000000, 4.000000, 4.000000
51.000000, 0.000000, 4336.922852, 4039.487061, 4129.743652, 4353.846191, 3995.384521, 0.000000, 8154.000000, 8341.000000, 0.000000, 0.000000, 0.000000, 0.000000, 102.500004, 1557655765.898690, 4.000000, 4.000000, 0.000000, 4.000000, 4.000000
52.000000, 0.000000, 4326.666504, 4020.512695, 4160.000000, 4346.153809, 3977.948730, 0.000000, 8151.000000, 8350.000000, 0.000000, 0.000000, 0.000000, 0.000000, 110.399998, 1557655765.906590, 4.000000, 4.000000, 0.000000, 4.000000, 4.000000
53.000000, 0.000000, 4329.743652, 4031.281982, 4068.205078, 4335.897461, 3972.820313, 0.000000, 8155.000000, 8351.000000, 0.000000, 0.000000, 0.000000, 0.000000, 118.200001, 1557655765.914390, 4.000000, 4.000000, 0.000000, 4.000000, 4.000000
54.000000, 0.000000, 4335.897461, 4037.435791, 4154.358887, 4344.615234, 3983.076904, 0.000000, 8151.000000, 8340.000000, 0.000000, 0.000000, 0.000000, 0.000000, 126.000004, 1557655765.922190, 4.000000, 4.000000, 0.000000, 4.000000, 4.000000
55.000000, 0.000000, 4332.820313, 4023.076904, 4204.615234, 4346.153809, 3984.615234, 0.000000, 8152.000000, 8340.000000, 0.000000, 0.000000, 0.000000, 0.000000, 133.800007, 1557655765.929990, 4.000000, 4.000000, 0.000000, 4.000000, 4.000000
56.000000, 0.000000, 4338.461426, 4030.769043, 4114.871582, 4342.051270, 3994.871582, 0.000000, 8143.000000, 8353.000000, 0.000000, 0.000000, 0.000000, 0.000000, 141.599995, 1557655765.937790, 4.000000, 4.000000, 0.000000, 4.000000, 4.000000
57.000000, 0.000000, 4361.538574, 4048.205078, 4180.512695, 4367.179199, 4017.435791, 0.000000, 8144.000000, 8344.000000, 0.000000, 0.000000, 0.000000, 0.000000, 149.500004, 1557655765.945690, 4.000000, 4.000000, 0.000000, 4.000000, 4.000000
58.000000, 0.000000, 4381.025391, 4053.845947, 4100.000000, 4395.897461, 4030.256348, 0.000000, 8147.000000, 8336.000000, 0.000000, 0.000000, 0.000000, 0.000000, 157.500004, 1557655765.953690, 4.000000, 4.000000, 0.000000, 4.000000, 4.000000
59.000000, 0.000000, 4375.897461, 4045.128174, 4150.769043, 4373.333008, 4034.871582, 0.000000, 8143.000000, 8345.000000, 0.000000, 0.000000, 0.000000, 0.000000, 165.500004, 1557655765.961690, 4.000000, 4.000000, 0.000000, 4.000000, 4.000000
60.000000, 0.000000, 4365.641113, 4026.153809, 4227.179199, 4345.127930, 4027.179443, 0.000000, 8142.000000, 8342.000000, 0.000000, 0.000000, 0.000000, 0.000000, 173.500004, 1557655765.969690, 4.000000, 4.000000, 0.000000, 4.000000, 4.000000
61.000000, 0.000000, 4355.897461, 4025.128174, 4119.487305, 4365.127930, 4014.358887, 0.000000, 8139.000000, 8342.000000, 0.000000, 0.000000, 0.000000, 0.000000, 181.500004, 1557655765.977690, 4.000000, 4.000000, 0.000000, 4.000000, 4.000000
62.000000, 0.000000, 4344.102539, 4035.897217, 4160.000000, 4378.974121, 4012.307617, 0.000000, 8135.000000, 8342.000000, 0.000000, 0.000000, 0.000000, 0.000000, 189.200001, 1557655765.985390, 4.000000, 4.000000, 0.000000, 4.000000, 4.000000
63.000000, 0.000000, 4344.102539, 4032.307617, 4120.000000, 4357.435547, 4012.307617, 0.000000, 8139.000000, 8342.000000, 0.000000, 0.000000, 0.000000, 0.000000, 197.000004, 1557655765.993190, 4.000000, 4.000000, 0.000000, 4.000000, 4.000000
64.000000, 0.000000, 4351.794922, 4040.512695, 4176.922852, 4352.307617, 4019.487061, 500.000000, 8139.000000, 8344.000000, 0.000000, 0.000000, 0.000000, 0.000000, 204.800007, 1557655766.000990, 4.000000, 4.000000, 0.000000, 4.000000, 4.000000
65.000000, 0.000000, 4357.435547, 4066.666504, 4235.897461, 4364.102539, 4031.794678, 500.000000, 8138.000000, 8348.000000, 0.000000, 0.000000, 0.000000, 0.000000, 212.599995, 1557655766.008790, 4.000000, 4.000000, 0.000000, 4.000000, 4.000000
66.000000, 0.000000, 4349.743652, 4063.076904, 4091.794678, 4345.641113, 4022.563965, 16211.000000, 8140.000000, 8354.000000, 0.000000, 0.000000, 0.000000, 0.000000, 220.599995, 1557655766.016790, 4.000000, 4.000000, 0.000000, 4.000000, 4.000000
67.000000, 0.000000, 4333.846191, 4028.717773, 4138.461426, 4326.153809, 4009.743408, 500.000000, 8144.000000, 8348.000000, 0.000000, 0.000000, 0.000000, 0.000000, 228.499989, 1557655766.024690, 4.000000, 4.000000, 0.000000, 4.000000, 4.000000
68.000000, 0.000000, 4330.256348, 4017.948730, 4134.358887, 4338.461426, 4017.948730, 16095.000000, 8148.000000, 8355.000000, 0.000000, 0.000000, 0.000000, 0.000000, 236.300007, 1557655766.032490, 4.000000, 4.000000, 0.000000, 4.000000, 4.000000
69.000000, 0.000000, 4341.538574, 4046.153809, 4172.307617, 4350.769043, 4037.948730, 500.000000, 8145.000000, 8365.000000, 0.000000, 0.000000, 0.000000, 0.000000, 244.300007, 1557655766.040490, 4.000000, 4.000000, 0.000000, 4.000000, 4.000000
70.000000, 0.000000, 4350.256348, 4066.153809, 4235.384277, 4353.333008, 4040.512695, 26.000000, 8152.000000, 8368.000000, 0.000000, 0.000000, 0.000000, 0.000000, 252.099995, 1557655766.048290, 4.000000, 4.000000, 0.000000, 4.000000, 4.000000
71.000000, 0.000000, 4341.538574, 4057.435791, 4101.538574, 4349.230469, 4019.487061, 500.000000, 8147.000000, 8356.000000, 0.000000, 0.000000, 0.000000, 0.000000, 259.900013, 1557655766.056090, 4.000000, 4.000000, 0.000000, 4.000000, 4.000000
72.000000, 0.000000, 4338.974121, 4071.281982, 4174.358887, 4346.153809, 4016.410156, 500.000000, 8147.000000, 8355.000000, 0.000000, 0.000000, 0.000000, 0.000000, 267.599995, 1557655766.063790, 4.000000, 4.000000, 0.000000, 4.000000, 4.000000
73.000000, 0.000000, 4352.820313, 4086.153809, 4187.692383, 4354.358887, 4027.179443, 16151.000000, 8145.000000, 8365.000000, 0.000000, 0.000000, 0.000000, 0.000000, 275.599995, 1557655766.071790, 4.000000, 4.000000, 0.000000, 4.000000, 4.000000
74.000000, 0.000000, 4357.948730, 4057.948730, 4165.127930, 4364.102539, 4026.153809, 500.000000, 8147.000000, 8362.000000, 0.000000, 0.000000, 0.000000, 0.000000, 283.599995, 1557655766.079790, 4.000000, 4.000000, 0.000000, 4.000000, 4.000000
75.000000, 0.000000, 4353.846191, 4045.640869, 4212.307617, 4350.256348, 4033.845947, 16208.000000, 8148.000000, 8361.000000, 0.000000, 0.000000, 0.000000, 0.000000, 291.599995, 1557655766.087790, 4.000000, 4.000000, 0.000000, 4.000000, 4.000000
76.000000, 0.000000, 4340.000000, 4055.897217, 4084.102539, 4315.384277, 4035.384521, 500.000000, 8156.000000, 8361.000000, 0.000000, 0.000000, 0.000000, 0.000000, 299.599995, 1557655766.095790, 4.000000, 4.000000, 0.000000, 4.000000, 4.000000
77.000000, 0.000000, 4333.333008, 4055.384521, 4155.384277, 4327.179199, 4026.666504, 500.000000, 8152.000000, 8358.000000, 0.000000, 0.000000, 0.000000, 0.000000, 307.499989, 1557655766.103690, 4.000000, 4.000000, 0.000000, 4.000000, 4.000000
78.000000, 0.000000, 4355.897461, 4066.153809, 4194.871582, 4367.692383, 4035.897217, 450.000000, 8145.000000, 8362.000000, 0.000000, 0.000000, 0.000000, 0.000000, 315.300007, 1557655766.111490, 4.000000, 4.000000, 0.000000, 4.000000, 4.000000
79.000000, 0.000000, 4367.179199, 4080.000000, 4144.615234, 4347.179199, 4047.692139, 16208.000000, 8144.000000, 8362.000000, 0.000000, 0.000000, 0.000000, 0.000000, 323.099995, 1557655766.119290, 4.000000, 4.000000, 0.000000, 4.000000, 4.000000
80.000000, 0.000000, 4348.205078, 4075.384521, 4191.794922, 4319.487305, 4037.435791, 450.000000, 8150.000000, 8350.000000, 0.000000, 0.000000, 0.000000, 0.000000, 330.900013, 1557655766.127090, 4.000000, 4.000000, 0.000000, 4.000000, 4.000000
81.000000, 0.000000, 4340.000000, 4077.948730, 4089.230713, 4341.538574, 4022.051270, 450.000000, 8150.000000, 8342.000000, 0.000000, 0.000000, 0.000000, 0.000000, 338.700001, 1557655766.134890, 4.000000, 4.000000, 0.000000, 4.000000, 4.000000
82.000000, 0.000000, 4344.102539, 4096.410156, 4164.615234, 4353.333008, 4025.640869, 450.000000, 8152.000000, 8353.000000, 0.000000, 0.000000, 0.000000, 0.000000, 346.499989, 1557655766.142690, 4.000000, 4.000000, 0.000000, 4.000000, 4.000000
83.000000, 0.000000, 4338.974121, 4092.820313, 4210.769043, 4332.820313, 4035.384521, 16208.000000, 8151.000000, 8349.000000, 0.000000, 0.000000, 0.000000, 0.000000, 354.400013, 1557655766.150590, 4.000000, 4.000000, 0.000000, 4.000000, 4.000000
84.000000, 0.000000, 4346.153809, 4077.948730, 4117.436035, 4320.512695, 4033.845947, 450.000000, 8157.000000, 8342.000000, 0.000000, 0.000000, 0.000000, 0.000000, 362.400013, 1557655766.158590, 4.000000, 4.000000, 0.000000, 4.000000, 4.000000
85.000000, 0.000000, 4361.538574, 4090.256348, 4155.384277, 4334.871582, 4035.384521, 450.000000, 8151.000000, 8340.000000, 0.000000, 0.000000, 0.000000, 0.000000, 370.400013, 1557655766.166590, 4.000000, 4.000000, 0.000000, 4.000000, 4.000000
86.000000, 0.000000, 4355.897461, 4105.127930, 4079.487061, 4349.743652, 4040.512695, 450.000000, 8152.000000, 8350.000000, 0.000000, 0.000000, 0.000000, 0.000000, 378.400013, 1557655766.174590, 4.000000, 4.000000, 0.000000, 4.000000, 4.000000
87.000000, 0.000000, 4341.538574, 4089.230713, 4160.512695, 4318.974121, 4032.820313, 16208.000000, 8149.000000, 8346.000000, 0.000000, 0.000000, 0.000000, 0.000000, 386.200001, 1557655766.182390, 4.000000, 4.000000, 0.000000, 4.000000, 4.000000
88.000000, 0.000000, 4344.102539, 4080.512695, 4225.641113, 4302.051270, 4029.230713, 450.000000, 8154.000000, 8340.000000, 0.000000, 0.000000, 0.000000, 0.000000, 393.900013, 1557655766.190090, 4.000000, 4.000000, 0.000000, 4.000000, 4.000000
89.000000, 0.000000, 4350.256348, 4100.512695, 4113.846191, 4343.076660, 4036.923096, 450.000000, 8152.000000, 8346.000000, 0.000000, 0.000000, 0.000000, 0.000000, 401.700001, 1557655766.197890, 4.000000, 4.000000, 0.000000, 4.000000, 4.000000
90.000000, 0.000000, 4332.820313, 4097.436035, 4157.948730, 4321.538574, 4028.205078, 450.000000, 8153.000000, 8340.000000, 0.000000, 0.000000, 0.000000, 0.000000, 409.599995, 1557655766.205790, 4.000000, 4.000000, 0.000000, 4.000000, 4.000000
91.000000, 0.000000, 4309.230469, 4073.845947, 4096.410156, 4274.358887, 4006.153809, 16208.000000, 8149.000000, 8339.000000, 0.000000, 0.000000, 0.000000, 0.000000, 417.599995, 1557655766.213790, 4.000000, 4.000000, 0.000000, 4.000000, 4.000000
92.000000, 0.000000, 4309.230469, 4084.102539, 4147.692383, 4332.820313, 4002.563965, 450.000000, 8148.000000, 8343.000000, 0.000000, 0.000000, 0.000000, 0.000000, 425.599995, 1557655766.221790, 4.000000, 4.000000, 0.000000, 4.000000, 4.000000
93.000000, 0.000000, 4321.025391, 4113.846191, 4215.384277, 4357.435547, 4011.281982, 450.000000, 8149.000000, 8332.000000, 0.000000, 0.000000, 0.000000, 0.000000, 433.400013, 1557655766.229590, 4.000000, 4.000000, 0.000000, 4.000000, 4.000000
94.000000, 0.000000, 4316.922852, 4110.769043, 4091.281982, 4309.743652, 4013.845947, 450.000000, 8151.000000, 8335.000000, 0.000000, 0.000000, 0.000000, 0.000000, 441.400013, 1557655766.237590, 4.000000, 4.000000, 0.000000, 4.000000, 4.000000
95.000000, 0.000000, 4310.256348, 4091.281982, 4146.666504, 4325.127930, 4014.871582, 16208.000000, 8146.000000, 8344.000000, 0.000000, 0.000000, 0.000000, 0.000000, 449.200001, 1557655766.245390, 4.000000, 4.000000, 0.000000, 4.000000, 4.000000
96.000000, 0.000000, 4314.358887, 4098.974121, 4132.820313, 4348.717773, 4010.769043, 450.000000, 8148.000000, 8345.000000, 0.000000, 0.000000, 0.000000, 0.000000, 456.999989, 1557655766.253190, 4.000000, 4.000000, 0.000000, 4.000000, 4.000000
97.000000, 0.000000, 4321.025391, 4122.563965, 4171.794922, 4330.256348, 4014.871582, 450.000000, 8144.000000, 8333.000000, 0.000000, 0.000000, 0.000000, 0.000000, 464.800007, 1557655766.260990, 4.000000, 4.000000, 0.000000, 4.000000, 4.000000
98.000000, 0.000000, 4322.563965, 4121.025391, 4225.641113, 4326.666504, 4027.692139, 450.000000, 8146.000000, 8342.000000, 0.000000, 0.000000, 0.000000, 0.000000, 472.599995, 1557655766.268790, 4.000000, 4.000000, 0.000000, 4.000000, 4.000000
99.000000, 0.000000, 4313.333008, 4097.948730, 4083.076904, 4327.179199, 4021.025635, 16208.000000, 8142.000000, 8353.000000, 0.000000, 0.000000, 0.000000, 0.000000, 480.499989, 1557655766.276690, 4.000000, 4.000000, 0.000000, 4.000000, 4.000000
100.000000, 0.000000, 4307.692383, 4103.076660, 4137.948730, 4329.230469, 4009.230713, 450.000000, 8146.000000, 8356.000000, 0.000000, 0.000000, 0.000000, 0.000000, 488.499989, 1557655766.284690, 4.000000, 4.000000, 0.000000, 4.000000, 4.000000
101.000000, 0.000000, 4314.871582, 4125.127930, 4146.666504, 4340.512695, 4008.205078, 450.000000, 8147.000000, 8343.000000, 0.000000, 0.000000, 0.000000, 0.000000, 496.499989, 1557655766.292690, 4.000000, 4.000000, 0.000000, 4.000000, 4.000000
102.000000, 0.000000, 4317.436035, 4120.512695, 4168.717773, 4329.743652, 4015.384521, 450.000000, 8150.000000, 8347.000000, 0.000000, 0.000000, 0.000000, 0.000000, 504.499989, 1557655766.300690, 4.000000, 4.000000, 0.000000, 4.000000, 4.000000
103.000000, 0.000000, 4317.436035, 4114.871582, 4230.256348, 4324.615234, 4019.487061, 16208.000000, 8153.000000, 8350.000000, 0.000000, 0.000000, 0.000000, 0.000000, 512.400013, 1557655766.308590, 4.000000, 4.000000, 0.000000, 4.000000, 4.000000
104.000000, 0.000000, 4317.436035, 4125.641113, 4088.205078, 4336.922852, 4011.794678, 450.000000, 8149.000000, 8347.000000, 0.000000, 0.000000, 0.000000, 0.000000, 520.200001, 1557655766.316390, 4.000000, 4.000000, 0.000000, 4.000000, 4.000000
105.000000, 0.000000, 4322.051270, 4133.333008, 4159.487305, 4324.102539, 4016.923096, 450.000000, 8150.000000, 8353.000000, 0.000000, 0.000000, 0.000000, 0.000000, 527.999989, 1557655766.324190, 4.000000, 4.000000, 0.000000, 4.000000, 4.000000
106.000000, 0.000000, 4326.666504, 4119.487305, 4193.333008, 4333.333008, 4021.538330, 450.000000, 8154.000000, 8346.000000, 0.000000, 0.000000, 0.000000, 0.000000, 535.799976, 1557655766.331990, 4.000000, 4.000000, 0.000000, 4.000000, 4.000000
107.000000, 0.000000, 4314.358887, 4111.281738, 4147.179199, 4351.281738, 4005.640869, 16208.000000, 8149.000000, 8345.000000, 0.000000, 0.000000, 0.000000, 0.000000, 543.600025, 1557655766.339790, 4.000000, 4.000000, 0.000000, 4.000000, 4.000000
108.000000, 0.000000, 4316.410156, 4141.025391, 4178.974121, 4329.230469, 4010.256348, 450.000000, 8151.000000, 8351.000000, 0.000000, 0.000000, 0.000000, 0.000000, 551.499989, 1557655766.347690, 4.000000, 4.000000, 0.000000, 4.000000, 4.000000
109.000000, 0.000000, 4342.051270, 4142.563965, 4067.179443, 4292.820313, 4031.794678, 450.000000, 8158.000000, 8360.000000, 0.000000, 0.000000, 0.000000, 0.000000, 559.499989, 1557655766.355690, 4.000000, 4.000000, 0.000000, 4.000000, 4.000000
110.000000, 0.000000, 4340.000000, 4097.436035, 4161.538574, 4283.076660, 4034.871582, 450.000000, 8155.000000, 8348.000000, 0.000000, 0.000000, 0.000000, 0.000000, 567.499989, 1557655766.363690, 4.000000, 4.000000, 0.000000, 4.000000, 4.000000
111.000000, 0.000000, 4328.717773, 4113.333008, 4213.846191, 4298.974121, 4038.461426, 16208.000000, 8159.000000, 8350.000000, 0.000000, 0.000000, 0.000000, 0.000000, 575.299976, 1557655766.371490, 4.000000, 4.000000, 0.000000, 4.000000, 4.000000
112.000000, 0.000000, 4347.692383, 4154.871582, 4132.307617, 4318.974121, 4039.487061, 450.000000, 8154.000000, 8361.000000, 0.000000, 0.000000, 0.000000, 0.000000, 583.100025, 1557655766.379290, 4.000000, 4.000000, 0.000000, 4.000000, 4.000000
113.000000, 0.000000, 4350.256348, 4124.615234, 4174.358887, 4324.615234, 4027.692139, 450.000000, 8151.000000, 8378.000000, 0.000000, 0.000000, 0.000000, 0.000000, 590.799976, 1557655766.386990, 4.000000, 4.000000, 0.000000, 4.000000, 4.000000
114.000000, 0.000000, 4328.717773, 4105.127930, 4084.102539, 4298.974121, 4029.743408, 450.000000, 8153.000000, 8366.000000, 0.000000, 0.000000, 0.000000, 0.000000, 598.600025, 1557655766.394790, 4.000000, 4.000000, 0.000000, 4.000000, 4.000000
115.000000, 0.000000, 4327.179199, 4132.820313, 4150.256348, 4282.051270, 4035.897217, 16208.000000, 8147.000000, 8373.000000, 0.000000, 0.000000, 0.000000, 0.000000, 606.600025, 1557655766.402790, 4.000000, 4.000000, 0.000000, 4.000000, 4.000000
116.000000, 0.000000, 4330.256348, 4140.000000, 4204.615234, 4286.153809, 4016.923096, 450.000000, 8150.000000, 8380.000000, 0.000000, 0.000000, 0.000000, 0.000000, 614.499989, 1557655766.410690, 4.000000, 4.000000, 0.000000, 4.000000, 4.000000
117.000000, 0.000000, 4311.794922, 4134.358887, 4107.692383, 4261.538574, 3995.897217, 450.000000, 8144.000000, 8374.000000, 0.000000, 0.000000, 0.000000, 0.000000, 622.499989, 1557655766.418690, 4.000000, 4.000000, 0.000000, 4.000000, 4.000000
118.000000, 0.000000, 4288.717773, 4129.230469, 4160.512695, 4255.897461, 3986.153809, 450.000000, 8142.000000, 8376.000000, 0.000000, 0.000000, 0.000000, 0.000000, 630.400013, 1557655766.426590, 4.000000, 4.000000, 0.000000, 4.000000, 4.000000
119.000000, 0.000000, 4278.461426, 4123.589844, 4097.436035, 4287.692383, 3975.897217, 16208.000000, 8150.000000, 8363.000000, 0.000000, 0.000000, 0.000000, 0.000000, 638.400013, 1557655766.434590, 4.000000, 4.000000, 0.000000, 4.000000, 4.000000
120.000000, 0.000000, 4274.358887, 4128.205078, 4163.589844, 4301.538574, 3974.871582, 450.000000, 8163.000000, 8343.000000, 0.000000, 0.000000, 0.000000, 0.000000, 646.200001, 1557655766.442390, 4.000000, 4.000000, 0.000000, 4.000000, 4.000000
121.000000, 0.000000, 4270.256348, 4126.666504, 4231.794922, 4293.333008, 3984.615234, 450.000000, 8157.000000, 8336.000000, 0.000000, 0.000000, 0.000000, 0.000000, 653.999989, 1557655766.450190, 4.000000, 4.000000, 0.000000, 4.000000, 4.000000
122.000000, 0.000000, 4274.871582, 4116.922852, 4094.871582, 4312.820313, 3990.769043, 450.000000, 8170.000000, 8305.000000, 0.000000, 0.000000, 0.000000, 0.000000, 661.999989, 1557655766.458190, 4.000000, 4.000000, 0.000000, 4.000000, 4.000000
123.000000, 0.000000, 4292.820313, 4125.127930, 4132.307617, 4323.076660, 3991.281982, 16208.000000, 8179.000000, 8277.000000, 0.000000, 0.000000, 0.000000, 0.000000, 669.700001, 1557655766.465890, 4.000000, 4.000000, 0.000000, 4.000000, 4.000000
124.000000, 0.000000, 4300.000000, 4127.692383, 4111.281738, 4285.127930, 3984.615234, 450.000000, 8194.000000, 8259.000000, 0.000000, 0.000000, 0.000000, 0.000000, 677.600025, 1557655766.473790, 4.000000, 4.000000, 0.000000, 4.000000, 4.000000
125.000000, 0.000000, 4292.307617, 4109.230469, 4167.179199, 4284.102539, 3986.153809, 450.000000, 8192.000000, 8250.000000, 0.000000, 0.000000, 0.000000, 0.000000, 685.600025, 1557655766.481790, 4.000000, 4.000000, 0.000000, 4.000000, 4.000000
126.000000, 0.000000, 4285.641113, 4103.589844, 4224.102539, 4318.461426, 3996.410156, 450.000000, 8198.000000, 8240.000000, 0.000000, 0.000000, 0.000000, 0.000000, 693.600025, 1557655766.489790, 4.000000, 4.000000, 0.000000, 4.000000, 4.000000
127.000000, 0.000000, 4277.948730, 4126.666504, 4083.076904, 4293.846191, 3993.333252, 16208.000000, 8201.000000, 8224.000000, 0.000000, 0.000000, 0.000000, 0.000000, 701.600025, 1557655766.497790, 4.000000, 4.000000, 0.000000, 4.000000, 4.000000
128.000000, 0.000000, 4273.333008, 4142.563965, 4148.205078, 4244.615234, 3992.307617, 500.000000, 8196.000000, 8223.000000, 0.000000, 0.000000, 0.000000, 0.000000, 709.299976, 1557655766.505490, 4.000000, 4.000000, 0.000000, 4.000000, 4.000000
0.000000, 0.000000, 4274.358887, 4120.000000, 4147.179199, 4268.205078, 3994.871582, 500.000000, 8192.000000, 8229.000000, 0.000000, 0.000000, 0.000000, 0.000000, 717.100025, 1557655766.513290, 4.000000, 4.000000, 0.000000, 4.000000, 4.000000
1.000000, 0.000000, 4262.051270, 4088.205078, 4153.333008, 4309.230469, 3981.538330, 500.000000, 8185.000000, 8242.000000, 0.000000, 0.000000, 0.000000, 0.000000, 724.900013, 1557655766.521090, 4.000000, 4.000000, 0.000000, 4.000000, 4.000000
2.000000, 0.000000, 4241.025391, 4083.589600, 4214.871582, 4241.538574, 3965.128174, 16201.000000, 8180.000000, 8250.000000, 0.000000, 0.000000, 0.000000, 0.000000, 732.700001, 1557655766.528890, 4.000000, 4.000000, 0.000000, 4.000000, 4.000000
3.000000, 0.000000, 4237.948730, 4101.538574, 4080.000000, 4178.974121, 3967.179443, 500.000000, 8163.000000, 8263.000000, 0.000000, 0.000000, 0.000000, 0.000000, 740.600025, 1557655766.536790, 4.000000, 4.000000, 0.000000, 4.000000, 4.000000
4.000000, 0.000000, 4249.743652, 4108.717773, 4137.436035, 4242.051270, 3977.435791, 16095.000000, 8161.000000, 8270.000000, 0.000000, 0.000000, 0.000000, 0.000000, 748.499989, 1557655766.544690, 4.000000, 4.000000, 0.000000, 4.000000, 4.000000
5.000000, 0.000000, 4254.358887, 4089.743408, 4166.666504, 4258.461426, 3969.743408, 500.000000, 8153.000000, 8278.000000, 0.000000, 0.000000, 0.000000, 0.000000, 756.499989, 1557655766.552690, 4.000000, 4.000000, 0.000000, 4.000000, 4.000000
6.000000, 0.000000, 4246.153809, 4078.461426, 4163.076660, 4179.487305, 3964.102539, 27.000000, 8132.000000, 8291.000000, 0.000000, 0.000000, 0.000000, 0.000000, 764.499989, 1557655766.560690, 4.000000, 4.000000, 0.000000, 4.000000, 4.000000
7.000000, 0.000000, 4252.307617, 4105.127930, 4214.871582, 4202.563965, 3973.333252, 500.000000, 8126.000000, 8302.000000, 0.000000, 0.000000, 0.000000, 0.000000, 772.299976, 1557655766.568490, 4.000000, 4.000000, 0.000000, 4.000000, 4.000000
8.000000, 0.000000, 4264.615234, 4118.461426, 4080.000000, 4260.000000, 3969.743408, 500.000000, 8134.000000, 8297.000000, 0.000000, 0.000000, 0.000000, 0.000000, 780.100025, 1557655766.576290, 4.000000, 4.000000, 0.000000, 4.000000, 4.000000
9.000000, 0.000000, 4253.846191, 4093.845947, 4161.538574, 4193.333008, 3967.692139, 16165.000000, 8122.000000, 8310.000000, 0.000000, 0.000000, 0.000000, 0.000000, 787.799976, 1557655766.583990, 4.000000, 4.000000, 0.000000, 4.000000, 4.000000
10.000000, 0.000000, 4255.897461, 4084.615234, 4218.974121, 4135.897461, 3976.410156, 500.000000, 8118.000000, 8308.000000, 0.000000, 0.000000, 0.000000, 0.000000, 795.600025, 1557655766.591790, 4.000000, 4.000000, 0.000000, 4.000000, 4.000000
11.000000, 0.000000, 4269.743652, 4101.025391, 4151.281738, 4178.461426, 3968.205078, 16200.000000, 8118.000000, 8297.000000, 0.000000, 0.000000, 0.000000, 0.000000, 803.600025, 1557655766.599790, 4.000000, 4.000000, 0.000000, 4.000000, 4.000000
12.000000, 0.000000, 4263.076660, 4107.692383, 4188.205078, 4212.820313, 3962.563965, 500.000000, 8120.000000, 8312.000000, 0.000000, 0.000000, 0.000000, 0.000000, 811.600025, 1557655766.607790, 4.000000, 4.000000, 0.000000, 4.000000, 4.000000
13.000000, 0.000000, 4260.000000, 4096.922852, 4096.410156, 4202.051270, 3973.845947, 500.000000, 8123.000000, 8327.000000, 0.000000, 0.000000, 0.000000, 0.000000, 819.600025, 1557655766.615790, 4.000000, 4.000000, 0.000000, 4.000000, 4.000000
14.000000, 0.000000, 4260.000000, 4088.205078, 4175.384277, 4177.436035, 3960.000000, 450.000000, 8122.000000, 8341.000000, 0.000000, 0.000000, 0.000000, 0.000000, 827.499989, 1557655766.623690, 4.000000, 4.000000, 0.000000, 4.000000, 4.000000
15.000000, 0.000000, 4252.307617, 4093.845947, 4224.615234, 4166.666504, 3931.794678, 16200.000000, 8117.000000, 8346.000000, 0.000000, 0.000000, 0.000000, 0.000000, 835.499989, 1557655766.631690, 4.000000, 4.000000, 0.000000, 4.000000, 4.000000
16.000000, 0.000000, 4249.230469, 4092.307617, 4126.666504, 4161.025391, 3925.640869, 0.000000, 8120.000000, 8358.000000, 0.000000, 0.000000, 0.000000, 0.000000, 843.299976, 1557655766.639490, 4.000000, 4.000000, 0.000000, 4.000000, 4.000000
17.000000, 0.000000, 4244.102539, 4075.897217, 4157.948730, 4147.179199, 3932.820313, 0.000000, 8117.000000, 8363.000000, 0.000000, 0.000000, 0.000000, 0.000000, 851.100025, 1557655766.647290, 4.000000, 4.000000, 0.000000, 4.000000, 4.000000
18.000000, 0.000000, 4228.205078, 4060.000000, 4073.845947, 4155.897461, 3926.153809, 0.000000, 8115.000000, 8374.000000, 0.000000, 0.000000, 0.000000, 0.000000, 858.900013, 1557655766.655090, 4.000000, 4.000000, 0.000000, 4.000000, 4.000000
19.000000, 0.000000, 4218.974121, 4054.358887, 4148.717773, 4151.281738, 3911.281982, 0.000000, 8116.000000, 8381.000000, 0.000000, 0.000000, 0.000000, 0.000000, 866.600025, 1557655766.662790, 4.000000, 4.000000, 0.000000, 4.000000, 4.000000
20.000000, 0.000000, 4219.487305, 4048.717773, 4218.974121, 4131.281738, 3908.717773, 0.000000, 8112.000000, 8441.000000, 0.000000, 0.000000, 0.000000, 0.000000, 874.499989, 1557655766.670690, 4.000000, 4.000000, 0.000000, 4.000000, 4.000000
21.000000, 0.000000, 4223.076660, 4048.205078, 4105.641113, 4166.153809, 3913.333252, 0.000000, 8119.000000, 8380.000000, 0.000000, 0.000000, 0.000000, 0.000000, 882.499989, 1557655766.678690, 4.000000, 4.000000, 0.000000, 4.000000, 4.000000
22.000000, 0.000000, 4235.384277, 4062.563965, 4150.769043, 4218.461426, 3924.615234, 0.000000, 8123.000000, 8384.000000, 0.000000, 0.000000, 0.000000, 0.000000, 890.499989, 1557655766.686690, 4.000000, 4.000000, 0.000000, 4.000000, 4.000000
23.000000, 0.000000, 4249.743652, 4067.692139, 4091.794678, 4183.589844, 3949.230713, 0.000000, 8125.000000, 8395.000000, 0.000000, 0.000000, 0.000000, 0.000000, 898.299976, 1557655766.694490, 4.000000, 4.000000, 0.000000, 4.000000, 4.000000
24.000000, 0.000000, 4256.922852, 4060.000000, 4143.589844, 4123.076660, 3962.563965, 0.000000, 8129.000000, 8388.000000, 0.000000, 0.000000, 0.000000, 0.000000, 905.999989, 1557655766.702190, 4.000000, 4.000000, 0.000000, 4.000000, 4.000000
25.000000, 0.000000, 4262.051270, 4056.410156, 4212.820313, 4154.871582, 3952.307617, 0.000000, 8139.000000, 8396.000000, 0.000000, 0.000000, 0.000000, 0.000000, 913.799976, 1557655766.709990, 4.000000, 4.000000, 0.000000, 4.000000, 4.000000
26.000000, 0.000000, 4262.051270, 4064.102539, 4068.717773, 4189.743652, 3953.333252, 0.000000, 8144.000000, 8403.000000, 0.000000, 0.000000, 0.000000, 0.000000, 921.600025, 1557655766.717790, 4.000000, 4.000000, 0.000000, 4.000000, 4.000000
27.000000, 0.000000, 4254.358887, 4074.358887, 4107.179199, 4161.025391, 3960.000000, 0.000000, 8151.000000, 8415.000000, 0.000000, 0.000000, 0.000000, 0.000000, 929.499989, 1557655766.725690, 4.000000, 4.000000, 0.000000, 4.000000, 4.000000
28.000000, 0.000000, 4242.563965, 4061.025635, 4091.281982, 4130.256348, 3927.692139, 0.000000, 8151.000000, 8411.000000, 0.000000, 0.000000, 0.000000, 0.000000, 937.499989, 1557655766.733690, 4.000000, 4.000000, 0.000000, 4.000000, 4.000000
29.000000, 0.000000, 4234.871582, 4035.384521, 4129.743652, 4145.641113, 3902.563965, 0.000000, 8145.000000, 8424.000000, 0.000000, 0.000000, 0.000000, 0.000000, 945.400013, 1557655766.741590, 4.000000, 4.000000, 0.000000, 4.000000, 4.000000
30.000000, 0.000000, 4242.051270, 4045.128174, 4196.410156, 4184.615234, 3929.743408, 0.000000, 8150.000000, 8428.000000, 0.000000, 0.000000, 0.000000, 0.000000, 953.400013, 1557655766.749590, 4.000000, 4.000000, 0.000000, 4.000000, 4.000000
31.000000, 0.000000, 4243.589844, 4076.410156, 4057.948730, 4176.410156, 3951.281982, 0.000000, 8151.000000, 8421.000000, 0.000000, 0.000000, 0.000000, 0.000000, 961.400013, 1557655766.757590, 4.000000, 4.000000, 0.000000, 4.000000, 4.000000
32.000000, 0.000000, 4234.358887, 4070.769043, 4124.615234, 4140.000000, 3936.410156, 0.000000, 8154.000000, 8429.000000, 0.000000, 0.000000, 0.000000, 0.000000, 969.400001, 1557655766.765590, 4.000000, 4.000000, 0.000000, 4.000000, 4.000000
33.000000, 0.000000, 4232.820313, 4048.205078, 4152.820313, 4154.358887, 3924.102539, 0.000000, 8149.000000, 8425.000000, 0.000000, 0.000000, 0.000000, 0.000000, 977.200001, 1557655766.773390, 4.000000, 4.000000, 0.000000, 4.000000, 4.000000
34.000000, 0.000000, 4238.974121, 4050.769043, 4150.256348, 4200.000000, 3938.461426, 0.000000, 8153.000000, 8424.000000, 0.000000, 0.000000, 0.000000, 0.000000, 984.900002, 1557655766.781090, 4.000000, 4.000000, 0.000000, 4.000000, 4.000000
35.000000, 0.000000, 4246.666504, 4064.102539, 4186.153809, 4181.025391, 3947.692139, 0.000000, 8147.000000, 8418.000000, 0.000000, 0.000000, 0.000000, 0.000000, 992.700001, 1557655766.788890, 4.000000, 4.000000, 0.000000, 4.000000, 4.000000
36.000000, 0.000000, 4243.589844, 4069.743408, 4055.897217, 4156.410156, 3937.435791, 0.000000, 8148.000000, 8427.000000, 0.000000, 0.000000, 0.000000, 1.000000, 0.600002, 1557655766.796790, 4.000000, 4.000000, 0.000000, 4.000000, 4.000000
37.000000, 0.000000, 4237.436035, 4077.435791, 4139.487305, 4196.922852, 3938.974365, 0.000000, 8151.000000, 8414.000000, 0.000000, 0.000000, 0.000000, 1.000000, 8.600002, 1557655766.804790, 4.000000, 4.000000, 0.000000, 4.000000, 4.000000
38.000000, 0.000000, 4228.717773, 4069.743408, 4174.871582, 4183.589844, 3928.717773, 0.000000, 8142.000000, 8416.000000, 0.000000, 0.000000, 0.000000, 1.000000, 16.600002, 1557655766.812790, 4.000000, 4.000000, 0.000000, 4.000000, 4.000000
39.000000, 0.000000, 4204.102539, 4043.076904, 4129.743652, 4133.333008, 3898.461426, 0.000000, 8146.000000, 8428.000000, 0.000000, 0.000000, 0.000000, 1.000000, 24.500000, 1557655766.820690, 4.000000, 4.000000, 0.000000, 4.000000, 4.000000
40.000000, 0.000000, 4194.358887, 4041.025635, 4180.512695, 4152.820313, 3891.794678, 0.000000, 8142.000000, 8431.000000, 0.000000, 0.000000, 0.000000, 1.000000, 32.299999, 1557655766.828490, 4.000000, 4.000000, 0.000000, 4.000000, 4.000000
41.000000, 0.000000, 4196.922852, 4061.538330, 4071.794678, 4194.358887, 3884.615234, 0.000000, 8142.000000, 8417.000000, 0.000000, 0.000000, 0.000000, 1.000000, 40.100002, 1557655766.836290, 4.000000, 4.000000, 0.000000, 4.000000, 4.000000
42.000000, 0.000000, 4171.794922, 4062.563965, 4153.333008, 4202.563965, 3865.640869, 0.000000, 8138.000000, 8419.000000, 0.000000, 0.000000, 0.000000, 1.000000, 47.899998, 1557655766.844090, 4.000000, 4.000000, 0.000000, 4.000000, 4.000000
43.000000, 0.000000, 4150.256348, 4054.871582, 4212.820313, 4155.384277, 3865.640869, 0.000000, 8140.000000, 8421.000000, 0.000000, 0.000000, 0.000000, 1.000000, 55.700001, 1557655766.851890, 4.000000, 4.000000, 0.000000, 4.000000, 4.000000
44.000000, 0.000000, 4155.897461, 4059.487061, 4142.051270, 4114.358887, 3871.281982, 0.000000, 8140.000000, 8427.000000, 0.000000, 0.000000, 0.000000, 1.000000, 63.399998, 1557655766.859590, 4.000000, 4.000000, 0.000000, 4.000000, 4.000000
45.000000, 0.000000, 4151.281738, 4057.948730, 4184.615234, 4155.384277, 3865.128174, 0.000000, 8136.000000, 8431.000000, 0.000000, 0.000000, 0.000000, 1.000000, 71.399998, 1557655766.867590, 4.000000, 4.000000, 0.000000, 4.000000, 4.000000
46.000000, 0.000000, 4138.974121, 4056.923096, 4088.717773, 4181.025391, 3858.461426, 0.000000, 8129.000000, 8432.000000, 0.000000, 0.000000, 0.000000, 1.000000, 79.399998, 1557655766.875590, 4.000000, 4.000000, 0.000000, 4.000000, 4.000000
47.000000, 0.000000, 4151.281738, 4062.051270, 4162.563965, 4138.974121, 3864.102539, 0.000000, 8128.000000, 8421.000000, 0.000000, 0.000000, 0.000000, 1.000000, 87.399998, 1557655766.883590, 4.000000, 4.000000, 0.000000, 4.000000, 4.000000
48.000000, 0.000000, 4165.127930, 4056.410156, 4226.153809, 4148.717773, 3874.871582, 0.000000, 8128.000000, 8414.000000, 0.000000, 0.000000, 0.000000, 1.000000, 95.399998, 1557655766.891590, 4.000000, 4.000000, 0.000000, 4.000000, 4.000000
49.000000, 0.000000, 4152.820313, 4044.615234, 4103.589844, 4185.127930, 3866.666504, 0.000000, 8132.000000, 8423.000000, 0.000000, 0.000000, 0.000000, 1.000000, 103.300007, 1557655766.899490, 4.000000, 4.000000, 0.000000, 4.000000, 4.000000
50.000000, 0.000000, 4137.436035, 4047.692139, 4128.717773, 4156.922852, 3855.384521, 0.000000, 8128.000000, 8414.000000, 0.000000, 0.000000, 0.000000, 1.000000, 111.099995, 1557655766.907290, 4.000000, 4.000000, 0.000000, 4.000000, 4.000000
51.000000, 0.000000, 4150.256348, 4064.102539, 4076.410156, 4126.666504, 3877.435791, 0.000000, 8130.000000, 8401.000000, 0.000000, 0.000000, 0.000000, 1.000000, 118.899998, 1557655766.915090, 4.000000, 4.000000, 0.000000, 4.000000, 4.000000
52.000000, 0.000000, 4167.179199, 4067.692139, 4150.769043, 4146.666504, 3894.358887, 0.000000, 8128.000000, 8411.000000, 0.000000, 0.000000, 0.000000, 1.000000, 126.700001, 1557655766.922890, 4.000000, 4.000000, 0.000000, 4.000000, 4.000000
53.000000, 0.000000, 4155.384277, 4057.948730, 4207.692383, 4181.025391, 3871.794678, 0.000000, 8126.000000, 8404.000000, 0.000000, 0.000000, 0.000000, 1.000000, 134.500004, 1557655766.930690, 4.000000, 4.000000, 0.000000, 4.000000, 4.000000
54.000000, 0.000000, 4155.384277, 4056.923096, 4070.769043, 4181.538574, 3863.589600, 0.000000, 8128.000000, 8399.000000, 0.000000, 0.000000, 0.000000, 1.000000, 142.399998, 1557655766.938590, 4.000000, 4.000000, 0.000000, 4.000000, 4.000000
55.000000, 0.000000, 4172.307617, 4061.025635, 4128.205078, 4147.692383, 3880.000000, 0.000000, 8133.000000, 8402.000000, 0.000000, 0.000000, 0.000000, 1.000000, 150.399998, 1557655766.946590, 4.000000, 4.000000, 0.000000, 4.000000, 4.000000
56.000000, 0.000000, 4158.974121, 4040.512695, 4109.230469, 4141.025391, 3875.897461, 0.000000, 8136.000000, 8398.000000, 0.000000, 0.000000, 0.000000, 1.000000, 158.399998, 1557655766.954590, 4.000000, 4.000000, 0.000000, 4.000000, 4.000000
57.000000, 0.000000, 4138.974121, 4014.358887, 4138.461426, 4168.205078, 3867.179443, 0.000000, 8144.000000, 8394.000000, 0.000000, 0.000000, 0.000000, 1.000000, 166.200001, 1557655766.962390, 4.000000, 4.000000, 0.000000, 4.000000, 4.000000
58.000000, 0.000000, 4145.127930, 4031.281982, 4195.384277, 4171.281738, 3871.794678, 0.000000, 8143.000000, 8397.000000, 0.000000, 0.000000, 0.000000, 1.000000, 174.000004, 1557655766.970190, 4.000000, 4.000000, 0.000000, 4.000000, 4.000000
59.000000, 0.000000, 4150.256348, 4047.692139, 4064.102539, 4156.922852, 3876.410156, 0.000000, 8146.000000, 8392.000000, 0.000000, 0.000000, 0.000000, 1.000000, 181.700001, 1557655766.977890, 4.000000, 4.000000, 0.000000, 4.000000, 4.000000
60.000000, 0.000000, 4141.538574, 4028.717773, 4128.717773, 4154.871582, 3875.384521, 0.000000, 8150.000000, 8378.000000, 0.000000, 0.000000, 0.000000, 1.000000, 189.500004, 1557655766.985690, 4.000000, 4.000000, 0.000000, 4.000000, 4.000000
61.000000, 0.000000, 4134.871582, 4026.153809, 4134.358887, 4155.384277, 3864.102539, 0.000000, 8145.000000, 8366.000000, 0.000000, 0.000000, 0.000000, 1.000000, 197.500004, 1557655766.993690, 4.000000, 4.000000, 0.000000, 4.000000, 4.000000
62.000000, 0.000000, 4131.281738, 4052.820313, 4145.127930, 4143.076660, 3854.871582, 0.000000, 8149.000000, 8371.000000, 0.000000, 0.000000, 0.000000, 1.000000, 205.500004, 1557655767.001690, 4.000000, 4.000000, 0.000000, 4.000000, 4.000000
63.000000, 0.000000, 4136.922852, 4069.230713, 4207.692383, 4140.000000, 3862.563965, 0.000000, 8148.000000, 8370.000000, 0.000000, 0.000000, 0.000000, 1.000000, 213.500004, 1557655767.009690, 4.000000, 4.000000, 0.000000, 4.000000, 4.000000
64.000000, 0.000000, 4145.641113, 4064.102539, 4065.128174, 4160.000000, 3864.615234, 500.000000, 8147.000000, 8359.000000, 0.000000, 0.000000, 0.000000, 1.000000, 221.399998, 1557655767.017590, 4.000000, 4.000000, 0.000000, 4.000000, 4.000000
65.000000, 0.000000, 4143.076660, 4058.974365, 4115.384277, 4142.563965, 3861.538330, 500.000000, 8151.000000, 8354.000000, 0.000000, 0.000000, 0.000000, 1.000000, 229.400013, 1557655767.025590, 4.000000, 4.000000, 0.000000, 4.000000, 4.000000
66.000000, 0.000000, 4150.256348, 4064.102539, 4154.871582, 4120.512695, 3877.435791, 16209.000000, 8148.000000, 8365.000000, 0.000000, 0.000000, 0.000000, 1.000000, 237.400013, 1557655767.033590, 4.000000, 4.000000, 0.000000, 4.000000, 4.000000
67.000000, 0.000000, 4171.281738, 4074.358887, 4136.410156, 4174.358887, 3904.615234, 500.000000, 8152.000000, 8351.000000, 0.000000, 0.000000, 0.000000, 1.000000, 245.200001, 1557655767.041390, 4.000000, 4.000000, 0.000000, 4.000000, 4.000000
68.000000, 0.000000, 4186.666504, 4075.384521, 4161.025391, 4202.051270, 3913.845947, 16097.000000, 8156.000000, 8353.000000, 0.000000, 0.000000, 0.000000, 1.000000, 252.999989, 1557655767.049190, 4.000000, 4.000000, 0.000000, 4.000000, 4.000000
69.000000, 0.000000, 4181.538574, 4074.358887, 4038.461426, 4142.563965, 3899.487061, 500.000000, 8153.000000, 8359.000000, 0.000000, 0.000000, 0.000000, 1.000000, 260.800007, 1557655767.056990, 4.000000, 4.000000, 0.000000, 4.000000, 4.000000
70.000000, 0.000000, 4168.717773, 4081.025635, 4140.512695, 4138.974121, 3888.717773, 17.000000, 8155.000000, 8355.000000, 0.000000, 0.000000, 0.000000, 1.000000, 268.499989, 1557655767.064690, 4.000000, 4.000000, 0.000000, 4.000000, 4.000000
71.000000, 0.000000, 4164.102539, 4078.461426, 4192.820313, 4189.743652, 3886.153809, 500.000000, 8154.000000, 8348.000000, 0.000000, 0.000000, 0.000000, 1.000000, 276.499989, 1557655767.072690, 4.000000, 4.000000, 0.000000, 4.000000, 4.000000
72.000000, 0.000000, 4163.589844, 4070.769043, 4118.974121, 4178.461426, 3888.205078, 500.000000, 8147.000000, 8350.000000, 0.000000, 0.000000, 0.000000, 1.000000, 284.499989, 1557655767.080690, 4.000000, 4.000000, 0.000000, 4.000000, 4.000000
73.000000, 0.000000, 4168.717773, 4070.769043, 4174.871582, 4160.512695, 3897.948730, 16140.000000, 8150.000000, 8350.000000, 0.000000, 0.000000, 0.000000, 1.000000, 292.499989, 1557655767.088690, 4.000000, 4.000000, 0.000000, 4.000000, 4.000000
74.000000, 0.000000, 4164.102539, 4070.256348, 4084.615234, 4171.281738, 3891.281982, 500.000000, 8146.000000, 8357.000000, 0.000000, 0.000000, 0.000000, 1.000000, 300.300007, 1557655767.096490, 4.000000, 4.000000, 0.000000, 4.000000, 4.000000
75.000000, 0.000000, 4142.563965, 4072.820313, 4137.436035, 4180.000000, 3882.563965, 16184.000000, 8145.000000, 8362.000000, 0.000000, 0.000000, 0.000000, 1.000000, 307.999989, 1557655767.104190, 4.000000, 4.000000, 0.000000, 4.000000, 4.000000
76.000000, 0.000000, 4135.897461, 4060.512695, 4181.538574, 4165.127930, 3893.333252, 500.000000, 8142.000000, 8365.000000, 0.000000, 0.000000, 0.000000, 1.000000, 315.800007, 1557655767.111990, 4.000000, 4.000000, 0.000000, 4.000000, 4.000000
77.000000, 0.000000, 4142.051270, 4041.538330, 4091.281982, 4140.512695, 3887.179443, 500.000000, 8142.000000, 8357.000000, 0.000000, 0.000000, 0.000000, 1.000000, 323.599995, 1557655767.119790, 4.000000, 4.000000, 0.000000, 4.000000, 4.000000
78.000000, 0.000000, 4143.076660, 4073.845947, 4131.281738, 4169.230469, 3874.871582, 450.000000, 8147.000000, 8356.000000, 0.000000, 0.000000, 0.000000, 1.000000, 331.599995, 1557655767.127790, 4.000000, 4.000000, 0.000000, 4.000000, 4.000000
79.000000, 0.000000, 4142.051270, 4100.000000, 4055.384521, 4193.333008, 3873.845947, 16184.000000, 8147.000000, 8367.000000, 0.000000, 0.000000, 0.000000, 1.000000, 339.499989, 1557655767.135690, 4.000000, 4.000000, 0.000000, 4.000000, 4.000000
80.000000, 0.000000, 4142.051270, 4067.692139, 4139.487305, 4154.871582, 3872.307617, 450.000000, 8145.000000, 8363.000000, 0.000000, 0.000000, 0.000000, 1.000000, 347.400013, 1557655767.143590, 4.000000, 4.000000, 0.000000, 4.000000, 4.000000
81.000000, 0.000000, 4151.794922, 4067.692139, 4224.102539, 4151.794922, 3882.563965, 450.000000, 8145.000000, 8356.000000, 0.000000, 0.000000, 0.000000, 1.000000, 355.400013, 1557655767.151590, 4.000000, 4.000000, 0.000000, 4.000000, 4.000000
82.000000, 0.000000, 4168.205078, 4100.512695, 4093.845947, 4186.153809, 3906.153809, 450.000000, 8143.000000, 8367.000000, 0.000000, 0.000000, 0.000000, 1.000000, 363.200001, 1557655767.159390, 4.000000, 4.000000, 0.000000, 4.000000, 4.000000
83.000000, 0.000000, 4159.487305, 4073.845947, 4121.538574, 4168.717773, 3916.410156, 16184.000000, 8140.000000, 8362.000000, 0.000000, 0.000000, 0.000000, 1.000000, 370.999989, 1557655767.167190, 4.000000, 4.000000, 0.000000, 4.000000, 4.000000
84.000000, 0.000000, 4130.256348, 4030.256348, 4094.358887, 4146.153809, 3890.769043, 450.000000, 8142.000000, 8361.000000, 0.000000, 0.000000, 0.000000, 1.000000, 378.800007, 1557655767.174990, 4.000000, 4.000000, 0.000000, 4.000000, 4.000000
85.000000, 0.000000, 4112.307617, 4039.487061, 4165.641113, 4146.153809, 3851.794678, 450.000000, 8137.000000, 8365.000000, 0.000000, 0.000000, 0.000000, 1.000000, 386.599995, 1557655767.182790, 4.000000, 4.000000, 0.000000, 4.000000, 4.000000
86.000000, 0.000000, 4104.102539, 4060.000000, 4231.281738, 4134.358887, 3836.410156, 450.000000, 8147.000000, 8365.000000, 0.000000, 0.000000, 0.000000, 1.000000, 394.599995, 1557655767.190790, 4.000000, 4.000000, 0.000000, 4.000000, 4.000000
87.000000, 0.000000, 4099.487305, 4051.281982, 4087.179443, 4116.922852, 3845.640869, 16184.000000, 8139.000000, 8369.000000, 0.000000, 0.000000, 0.000000, 1.000000, 402.599995, 1557655767.198790, 4.000000, 4.000000, 0.000000, 4.000000, 4.000000
88.000000, 0.000000, 4113.846191, 4037.435791, 4143.589844, 4109.743652, 3861.538330, 450.000000, 8137.000000, 8369.000000, 0.000000, 0.000000, 0.000000, 1.000000, 410.599995, 1557655767.206790, 4.000000, 4.000000, 0.000000, 4.000000, 4.000000
89.000000, 0.000000, 4141.538574, 4052.820313, 4132.307617, 4147.692383, 3871.281982, 450.000000, 8134.000000, 8376.000000, 0.000000, 0.000000, 0.000000, 1.000000, 418.499989, 1557655767.214690, 4.000000, 4.000000, 0.000000, 4.000000, 4.000000
90.000000, 0.000000, 4155.897461, 4077.948730, 4141.538574, 4184.102539, 3881.538330, 450.000000, 8136.000000, 8363.000000, 0.000000, 0.000000, 0.000000, 1.000000, 426.400013, 1557655767.222590, 4.000000, 4.000000, 0.000000, 4.000000, 4.000000
91.000000, 0.000000, 4153.846191, 4079.487061, 4205.641113, 4157.436035, 3893.845947, 16184.000000, 8134.000000, 8368.000000, 0.000000, 0.000000, 0.000000, 1.000000, 434.200001, 1557655767.230390, 4.000000, 4.000000, 0.000000, 4.000000, 4.000000
92.000000, 0.000000, 4146.666504, 4068.717773, 4077.435791, 4127.179199, 3886.666504, 450.000000, 8132.000000, 8380.000000, 0.000000, 0.000000, 0.000000, 1.000000, 441.999989, 1557655767.238190, 4.000000, 4.000000, 0.000000, 4.000000, 4.000000
93.000000, 0.000000, 4132.307617, 4061.538330, 4143.076660, 4145.641113, 3854.358887, 450.000000, 8124.000000, 8379.000000, 0.000000, 0.000000, 0.000000, 1.000000, 449.800007, 1557655767.245990, 4.000000, 4.000000, 0.000000, 4.000000, 4.000000
94.000000, 0.000000, 4124.615234, 4075.897217, 4158.974121, 4152.820313, 3850.769043, 450.000000, 8124.000000, 8367.000000, 0.000000, 0.000000, 0.000000, 1.000000, 457.599995, 1557655767.253790, 4.000000, 4.000000, 0.000000, 4.000000, 4.000000
95.000000, 0.000000, 4155.384277, 4095.897217, 4141.538574, 4136.922852, 3891.794678, 16184.000000, 8125.000000, 8369.000000, 0.000000, 0.000000, 0.000000, 1.000000, 465.499989, 1557655767.261690, 4.000000, 4.000000, 0.000000, 4.000000, 4.000000
96.000000, 0.000000, 4199.487305, 4087.692139, 4204.615234, 4148.717773, 3916.923096, 450.000000, 8126.000000, 8374.000000, 0.000000, 0.000000, 0.000000, 1.000000, 473.499989, 1557655767.269690, 4.000000, 4.000000, 0.000000, 4.000000, 4.000000
97.000000, 0.000000, 4220.000000, 4095.384521, 4075.897217, 4170.769043, 3929.230713, 450.000000, 8123.000000, 8366.000000, 0.000000, 0.000000, 0.000000, 1.000000, 481.499989, 1557655767.277690, 4.000000, 4.000000, 0.000000, 4.000000, 4.000000
98.000000, 0.000000, 4247.179199, 4116.410156, 4136.922852, 4163.589844, 3958.974365, 450.000000, 8117.000000, 8367.000000, 0.000000, 0.000000, 0.000000, 1.000000, 489.499989, 1557655767.285690, 4.000000, 4.000000, 0.000000, 4.000000, 4.000000
99.000000, 0.000000, 4286.153809, 4101.025391, 4187.179199, 4155.897461, 3977.948730, 16184.000000, 8117.000000, 8355.000000, 0.000000, 0.000000, 0.000000, 1.000000, 497.299976, 1557655767.293490, 4.000000, 4.000000, 0.000000, 4.000000, 4.000000
100.000000, 0.000000, 4301.538574, 4080.000000, 4142.563965, 4196.410156, 3991.794678, 450.000000, 8121.000000, 8361.000000, 0.000000, 0.000000, 0.000000, 1.000000, 504.999989, 1557655767.301190, 4.000000, 4.000000, 0.000000, 4.000000, 4.000000
101.000000, 0.000000, 4310.769043, 4082.051270, 4183.589844, 4214.871582, 4004.102539, 450.000000, 8113.000000, 8362.000000, 0.000000, 0.000000, 0.000000, 1.000000, 512.799976, 1557655767.308990, 4.000000, 4.000000, 0.000000, 4.000000, 4.000000
102.000000, 0.000000, 4331.794922, 4090.256348, 4081.538330, 4152.820313, 3995.897217, 450.000000, 8110.000000, 8362.000000, 0.000000, 0.000000, 0.000000, 1.000000, 520.600025, 1557655767.316790, 4.000000, 4.000000, 0.000000, 4.000000, 4.000000
103.000000, 0.000000, 4352.307617, 4096.410156, 4156.410156, 4129.230469, 4005.640869, 16184.000000, 8114.000000, 8361.000000, 0.000000, 0.000000, 0.000000, 1.000000, 528.600025, 1557655767.324790, 4.000000, 4.000000, 0.000000, 4.000000, 4.000000
104.000000, 0.000000, 4375.897461, 4096.410156, 4209.230469, 4177.948730, 4026.153809, 450.000000, 8111.000000, 8360.000000, 0.000000, 0.000000, 0.000000, 1.000000, 536.600025, 1557655767.332790, 4.000000, 4.000000, 0.000000, 4.000000, 4.000000
105.000000, 0.000000, 4381.538574, 4082.563965, 4130.769043, 4202.563965, 4021.025635, 450.000000, 8106.000000, 8368.000000, 0.000000, 0.000000, 0.000000, 1.000000, 544.499989, 1557655767.340690, 4.000000, 4.000000, 0.000000, 4.000000, 4.000000
106.000000, 0.000000, 4362.051270, 4087.692139, 4171.281738, 4182.051270, 4014.871582, 450.000000, 8102.000000, 8382.000000, 0.000000, 0.000000, 0.000000, 1.000000, 552.499989, 1557655767.348690, 4.000000, 4.000000, 0.000000, 4.000000, 4.000000
107.000000, 0.000000, 4350.256348, 4111.281738, 4093.845947, 4153.846191, 4003.076904, 16184.000000, 8103.000000, 8369.000000, 0.000000, 0.000000, 0.000000, 1.000000, 560.499989, 1557655767.356690, 4.000000, 4.000000, 0.000000, 4.000000, 4.000000
108.000000, 0.000000, 4347.692383, 4112.820313, 4172.307617, 4165.127930, 3983.076904, 450.000000, 8103.000000, 8373.000000, 0.000000, 0.000000, 0.000000, 1.000000, 568.299976, 1557655767.364490, 4.000000, 4.000000, 0.000000, 4.000000, 4.000000
109.000000, 0.000000, 4338.461426, 4087.179443, 4225.127930, 4189.743652, 3968.717773, 450.000000, 8096.000000, 8381.000000, 0.000000, 0.000000, 0.000000, 1.000000, 576.100025, 1557655767.372290, 4.000000, 4.000000, 0.000000, 4.000000, 4.000000
110.000000, 0.000000, 4322.051270, 4058.974365, 4111.794922, 4162.051270, 3947.692139, 450.000000, 8106.000000, 8381.000000, 0.000000, 0.000000, 0.000000, 1.000000, 583.799976, 1557655767.379990, 4.000000, 4.000000, 0.000000, 4.000000, 4.000000
111.000000, 0.000000, 4317.436035, 4081.538330, 4172.307617, 4150.769043, 3945.640869, 16184.000000, 8105.000000, 8373.000000, 0.000000, 0.000000, 0.000000, 1.000000, 591.600025, 1557655767.387790, 4.000000, 4.000000, 0.000000, 4.000000, 4.000000
112.000000, 0.000000, 4328.717773, 4115.384277, 4120.512695, 4187.692383, 3960.512695, 450.000000, 8105.000000, 8370.000000, 0.000000, 0.000000, 0.000000, 1.000000, 599.499989, 1557655767.395690, 4.000000, 4.000000, 0.000000, 4.000000, 4.000000
113.000000, 0.000000, 4326.153809, 4099.487305, 4164.102539, 4184.615234, 3954.358887, 450.000000, 8115.000000, 8362.000000, 0.000000, 0.000000, 0.000000, 1.000000, 607.499989, 1557655767.403690, 4.000000, 4.000000, 0.000000, 4.000000, 4.000000
114.000000, 0.000000, 4306.666504, 4083.589600, 4226.666504, 4144.615234, 3943.076904, 450.000000, 8111.000000, 8367.000000, 0.000000, 0.000000, 0.000000, 1.000000, 615.499989, 1557655767.411690, 4.000000, 4.000000, 0.000000, 4.000000, 4.000000
115.000000, 0.000000, 4294.871582, 4106.666504, 4096.922852, 4160.000000, 3944.102539, 16184.000000, 8123.000000, 8361.000000, 0.000000, 0.000000, 0.000000, 1.000000, 623.400013, 1557655767.419590, 4.000000, 4.000000, 0.000000, 4.000000, 4.000000
116.000000, 0.000000, 4289.230469, 4113.333008, 4147.179199, 4207.179199, 3943.076904, 450.000000, 8124.000000, 8351.000000, 0.000000, 0.000000, 0.000000, 1.000000, 631.200001, 1557655767.427390, 4.000000, 4.000000, 0.000000, 4.000000, 4.000000
117.000000, 0.000000, 4295.897461, 4093.333252, 4134.871582, 4210.769043, 3944.102539, 450.000000, 8132.000000, 8346.000000, 0.000000, 0.000000, 0.000000, 1.000000, 638.999989, 1557655767.435190, 4.000000, 4.000000, 0.000000, 4.000000, 4.000000
118.000000, 0.000000, 4316.922852, 4104.102539, 4180.000000, 4204.615234, 3954.871582, 450.000000, 8131.000000, 8352.000000, 0.000000, 0.000000, 0.000000, 1.000000, 646.799976, 1557655767.442990, 4.000000, 4.000000, 0.000000, 4.000000, 4.000000
119.000000, 0.000000, 4325.641113, 4127.179199, 4245.127930, 4235.384277, 3958.461426, 16184.000000, 8132.000000, 8348.000000, 0.000000, 0.000000, 0.000000, 1.000000, 654.600025, 1557655767.450790, 4.000000, 4.000000, 0.000000, 4.000000, 4.000000
120.000000, 0.000000, 4313.846191, 4114.871582, 4084.102539, 4253.333008, 3947.692139, 450.000000, 8135.000000, 8336.000000, 0.000000, 0.000000, 0.000000, 1.000000, 662.499989, 1557655767.458690, 4.000000, 4.000000, 0.000000, 4.000000, 4.000000
121.000000, 0.000000, 4296.922852, 4094.358887, 4108.717773, 4202.563965, 3931.281982, 450.000000, 8135.000000, 8337.000000, 0.000000, 0.000000, 0.000000, 1.000000, 670.499989, 1557655767.466690, 4.000000, 4.000000, 0.000000, 4.000000, 4.000000
122.000000, 0.000000, 4287.692383, 4102.051270, 4118.461426, 4154.871582, 3913.845947, 450.000000, 8133.000000, 8345.000000, 0.000000, 0.000000, 0.000000, 1.000000, 678.499989, 1557655767.474690, 4.000000, 4.000000, 0.000000, 4.000000, 4.000000
123.000000, 0.000000, 4281.025391, 4106.666504, 4135.384277, 4188.717773, 3896.923096, 16184.000000, 8143.000000, 8334.000000, 0.000000, 0.000000, 0.000000, 1.000000, 686.499989, 1557655767.482690, 4.000000, 4.000000, 0.000000, 4.000000, 4.000000
124.000000, 0.000000, 4270.256348, 4097.436035, 4186.666504, 4211.794922, 3885.640869, 450.000000, 8138.000000, 8329.000000, 0.000000, 0.000000, 0.000000, 1.000000, 694.499989, 1557655767.490690, 4.000000, 4.000000, 0.000000, 4.000000, 4.000000
125.000000, 0.000000, 4256.410156, 4095.384521, 4046.666504, 4174.871582, 3878.461426, 450.000000, 8134.000000, 8330.000000, 0.000000, 0.000000, 0.000000, 1.000000, 702.200001, 1557655767.498390, 4.000000, 4.000000, 0.000000, 4.000000, 4.000000
126.000000, 0.000000, 4254.871582, 4101.538574, 4125.641113, 4177.436035, 3884.615234, 450.000000, 8140.000000, 8328.000000, 0.000000, 0.000000, 0.000000, 1.000000, 709.999989, 1557655767.506190, 4.000000, 4.000000, 0.000000, 4.000000, 4.000000
127.000000, 0.000000, 4280.000000, 4121.025391, 4168.717773, 4241.025391, 3907.692139, 16184.000000, 8138.000000, 8330.000000, 0.000000, 0.000000, 0.000000, 1.000000, 717.799976, 1557655767.513990, 4.000000, 4.000000, 0.000000, 4.000000, 4.000000
128.000000, 0.000000, 4303.076660, 4130.256348, 4129.230469, 4261.025391, 3922.051270, 500.000000, 8132.000000, 8333.000000, 0.000000, 0.000000, 0.000000, 1.000000, 725.600025, 1557655767.521790, 4.000000, 4.000000, 0.000000, 4.000000, 4.000000
0.000000, 0.000000, 4302.051270, 4128.205078, 4176.410156, 4231.281738, 3918.974365, 500.000000, 8136.000000, 8329.000000, 0.000000, 0.000000, 0.000000, 1.000000, 733.600025, 1557655767.529790, 4.000000, 4.000000, 0.000000, 4.000000, 4.000000
1.000000, 0.000000, 4295.897461, 4133.846191, 4050.256348, 4239.487305, 3921.025635, 500.000000, 8137.000000, 8326.000000, 0.000000, 0.000000, 0.000000, 1.000000, 741.499989, 1557655767.537690, 4.000000, 4.000000, 0.000000, 4.000000, 4.000000
2.000000, 0.000000, 4289.743652, 4129.743652, 4109.743652, 4267.179199, 3916.410156, 16205.000000, 8135.000000, 8336.000000, 0.000000, 0.000000, 0.000000, 1.000000, 749.499989, 1557655767.545690, 4.000000, 4.000000, 0.000000, 4.000000, 4.000000
3.000000, 0.000000, 4269.743652, 4110.769043, 4172.820313, 4232.307617, 3884.615234, 500.000000, 8133.000000, 8339.000000, 0.000000, 0.000000, 0.000000, 1.000000, 757.499989, 1557655767.553690, 4.000000, 4.000000, 0.000000, 4.000000, 4.000000
4.000000, 0.000000, 4250.256348, 4118.974121, 4118.461426, 4194.871582, 3862.051270, 16101.000000, 8135.000000, 8327.000000, 0.000000, 0.000000, 0.000000, 1.000000, 765.299976, 1557655767.561490, 4.000000, 4.000000, 0.000000, 4.000000, 4.000000
5.000000, 0.000000, 4249.743652, 4147.692383, 4160.512695, 4216.410156, 3862.051270, 500.000000, 8135.000000, 8330.000000, 0.000000, 0.000000, 0.000000, 1.000000, 773.100025, 1557655767.569290, 4.000000, 4.000000, 0.000000, 4.000000, 4.000000
6.000000, 0.000000, 4235.897461, 4132.820313, 4065.128174, 4214.871582, 3845.640869, 21.000000, 8130.000000, 8335.000000, 0.000000, 0.000000, 0.000000, 1.000000, 780.799976, 1557655767.576990, 4.000000, 4.000000, 0.000000, 4.000000, 4.000000
7.000000, 0.000000, 4218.461426, 4097.436035, 4142.563965, 4190.769043, 3828.717773, 500.000000, 8132.000000, 8340.000000, 0.000000, 0.000000, 0.000000, 1.000000, 788.600025, 1557655767.584790, 4.000000, 4.000000, 0.000000, 4.000000, 4.000000
8.000000, 0.000000, 4237.436035, 4110.256348, 4212.820313, 4223.076660, 3836.923096, 500.000000, 8135.000000, 8335.000000, 0.000000, 0.000000, 0.000000, 1.000000, 796.600025, 1557655767.592790, 4.000000, 4.000000, 0.000000, 4.000000, 4.000000
9.000000, 0.000000, 4256.922852, 4139.487305, 4108.205078, 4241.538574, 3845.640869, 16144.000000, 8140.000000, 8339.000000, 0.000000, 0.000000, 0.000000, 1.000000, 804.600025, 1557655767.600790, 4.000000, 4.000000, 0.000000, 4.000000, 4.000000
10.000000, 0.000000, 4238.461426, 4123.076660, 4143.076660, 4198.974121, 3829.743408, 500.000000, 8140.000000, 8345.000000, 0.000000, 0.000000, 0.000000, 1.000000, 812.499989, 1557655767.608690, 4.000000, 4.000000, 0.000000, 4.000000, 4.000000
11.000000, 0.000000, 4212.820313, 4096.410156, 4083.589600, 4207.692383, 3806.153809, 16180.000000, 8143.000000, 8348.000000, 0.000000, 0.000000, 0.000000, 1.000000, 820.400013, 1557655767.616590, 4.000000, 4.000000, 0.000000, 4.000000, 4.000000
12.000000, 0.000000, 4210.769043, 4094.358887, 4156.410156, 4244.102539, 3799.487061, 500.000000, 8142.000000, 8353.000000, 0.000000, 0.000000, 0.000000, 1.000000, 828.200001, 1557655767.624390, 4.000000, 4.000000, 0.000000, 4.000000, 4.000000
13.000000, 0.000000, 4224.102539, 4101.538574, 4233.333008, 4215.897461, 3809.230713, 500.000000, 8143.000000, 8349.000000, 0.000000, 0.000000, 0.000000, 1.000000, 835.999989, 1557655767.632190, 4.000000, 4.000000, 0.000000, 4.000000, 4.000000
14.000000, 0.000000, 4228.717773, 4112.820313, 4108.717773, 4187.692383, 3816.923096, 450.000000, 8149.000000, 8348.000000, 0.000000, 0.000000, 0.000000, 1.000000, 843.799976, 1557655767.639990, 4.000000, 4.000000, 0.000000, 4.000000, 4.000000
15.000000, 0.000000, 4214.871582, 4122.563965, 4142.563965, 4213.333008, 3805.640869, 16180.000000, 8153.000000, 8356.000000, 0.000000, 0.000000, 0.000000, 1.000000, 851.600025, 1557655767.647790, 4.000000, 4.000000, 0.000000, 4.000000, 4.000000
16.000000, 0.000000, 4202.051270, 4109.230469, 4105.641113, 4220.000000, 3784.102539, 0.000000, 8149.000000, 8358.000000, 0.000000, 0.000000, 0.000000, 1.000000, 859.499989, 1557655767.655690, 4.000000, 4.000000, 0.000000, 4.000000, 4.000000
17.000000, 0.000000, 4201.538574, 4092.820313, 4150.256348, 4163.589844, 3773.333252, 0.000000, 8156.000000, 8351.000000, 0.000000, 0.000000, 0.000000, 1.000000, 867.499989, 1557655767.663690, 4.000000, 4.000000, 0.000000, 4.000000, 4.000000
18.000000, 0.000000, 4201.538574, 4101.538574, 4214.358887, 4144.615234, 3766.153809, 0.000000, 8160.000000, 8356.000000, 0.000000, 0.000000, 0.000000, 1.000000, 875.499989, 1557655767.671690, 4.000000, 4.000000, 0.000000, 4.000000, 4.000000
19.000000, 0.000000, 4201.538574, 4116.410156, 4085.640869, 4195.897461, 3764.102539, 0.000000, 8159.000000, 8365.000000, 0.000000, 0.000000, 0.000000, 1.000000, 883.499989, 1557655767.679690, 4.000000, 4.000000, 0.000000, 4.000000, 4.000000
20.000000, 0.000000, 4207.179199, 4121.538574, 4146.666504, 4211.794922, 3774.358887, 0.000000, 8161.000000, 8369.000000, 0.000000, 0.000000, 0.000000, 1.000000, 891.299976, 1557655767.687490, 4.000000, 4.000000, 0.000000, 4.000000, 4.000000
21.000000, 0.000000, 4209.230469, 4107.692383, 4145.127930, 4181.538574, 3766.153809, 0.000000, 8166.000000, 8358.000000, 0.000000, 0.000000, 0.000000, 1.000000, 898.999989, 1557655767.695190, 4.000000, 4.000000, 0.000000, 4.000000, 4.000000
22.000000, 0.000000, 4197.436035, 4101.538574, 4168.717773, 4186.666504, 3742.563965, 0.000000, 8158.000000, 8358.000000, 0.000000, 0.000000, 0.000000, 1.000000, 906.799976, 1557655767.702990, 4.000000, 4.000000, 0.000000, 4.000000, 4.000000
23.000000, 0.000000, 4201.025391, 4132.820313, 4231.794922, 4218.974121, 3751.794678, 0.000000, 8158.000000, 8366.000000, 0.000000, 0.000000, 0.000000, 1.000000, 914.600025, 1557655767.710790, 4.000000, 4.000000, 0.000000, 4.000000, 4.000000
24.000000, 0.000000, 4233.333008, 4151.281738, 4071.281982, 4227.692383, 3774.871582, 0.000000, 8159.000000, 8368.000000, 0.000000, 0.000000, 0.000000, 1.000000, 922.600025, 1557655767.718790, 4.000000, 4.000000, 0.000000, 4.000000, 4.000000
25.000000, 0.000000, 4256.922852, 4133.333008, 4114.358887, 4224.102539, 3779.487061, 0.000000, 8163.000000, 8367.000000, 0.000000, 0.000000, 0.000000, 1.000000, 930.499989, 1557655767.726690, 4.000000, 4.000000, 0.000000, 4.000000, 4.000000
26.000000, 0.000000, 4243.589844, 4124.615234, 4155.384277, 4201.025391, 3775.897461, 0.000000, 8162.000000, 8360.000000, 0.000000, 0.000000, 0.000000, 1.000000, 938.400013, 1557655767.734590, 4.000000, 4.000000, 0.000000, 4.000000, 4.000000
27.000000, 0.000000, 4213.333008, 4131.281738, 4144.102539, 4184.102539, 3757.948730, 0.000000, 8161.000000, 8359.000000, 0.000000, 0.000000, 0.000000, 1.000000, 946.400013, 1557655767.742590, 4.000000, 4.000000, 0.000000, 4.000000, 4.000000
28.000000, 0.000000, 4203.589844, 4129.743652, 4184.102539, 4206.666504, 3733.845947, 0.000000, 8164.000000, 8364.000000, 0.000000, 0.000000, 0.000000, 1.000000, 954.400013, 1557655767.750590, 4.000000, 4.000000, 0.000000, 4.000000, 4.000000
29.000000, 0.000000, 4209.230469, 4132.820313, 4053.845947, 4210.256348, 3725.128174, 0.000000, 8164.000000, 8361.000000, 0.000000, 0.000000, 0.000000, 1.000000, 962.200001, 1557655767.758390, 4.000000, 4.000000, 0.000000, 4.000000, 4.000000
30.000000, 0.000000, 4204.615234, 4138.461426, 4133.846191, 4175.897461, 3727.179443, 0.000000, 8166.000000, 8350.000000, 0.000000, 0.000000, 0.000000, 1.000000, 970.000001, 1557655767.766190, 4.000000, 4.000000, 0.000000, 4.000000, 4.000000
31.000000, 0.000000, 4203.589844, 4148.717773, 4189.230469, 4153.333008, 3727.692139, 0.000000, 8168.000000, 8351.000000, 0.000000, 0.000000, 0.000000, 1.000000, 977.700001, 1557655767.773890, 4.000000, 4.000000, 0.000000, 4.000000, 4.000000
32.000000, 0.000000, 4213.333008, 4155.897461, 4116.410156, 4167.179199, 3723.076904, 0.000000, 8163.000000, 8362.000000, 0.000000, 0.000000, 0.000000, 1.000000, 985.500000, 1557655767.781690, 4.000000, 4.000000, 0.000000, 4.000000, 4.000000
33.000000, 0.000000, 4209.743652, 4146.153809, 4148.717773, 4173.333008, 3717.948730, 0.000000, 8160.000000, 8359.000000, 0.000000, 0.000000, 0.000000, 1.000000, 993.500000, 1557655767.789690, 4.000000, 4.000000, 0.000000, 4.000000, 4.000000
34.000000, 0.000000, 4191.281738, 4145.641113, 4047.692139, 4162.563965, 3711.281982, 0.000000, 8160.000000, 8351.000000, 0.000000, 0.000000, 0.000000, 2.000000, 1.500000, 1557655767.797690, 4.000000, 4.000000, 0.000000, 4.000000, 4.000000
35.000000, 0.000000, 4192.820313, 4154.358887, 4127.179199, 4187.692383, 3723.589600, 0.000000, 8157.000000, 8344.000000, 0.000000, 0.000000, 0.000000, 2.000000, 9.500000, 1557655767.805690, 4.000000, 4.000000, 0.000000, 4.000000, 4.000000
36.000000, 0.000000, 4206.666504, 4159.487305, 4199.487305, 4214.871582, 3748.717773, 0.000000, 8158.000000, 8352.000000, 0.000000, 0.000000, 0.000000, 2.000000, 17.400002, 1557655767.813590, 4.000000, 4.000000, 0.000000, 4.000000, 4.000000
37.000000, 0.000000, 4198.974121, 4169.743652, 4106.666504, 4199.487305, 3741.538330, 0.000000, 8159.000000, 8359.000000, 0.000000, 0.000000, 0.000000, 2.000000, 25.200001, 1557655767.821390, 4.000000, 4.000000, 0.000000, 4.000000, 4.000000
38.000000, 0.000000, 4190.769043, 4172.820313, 4137.436035, 4196.410156, 3712.820313, 0.000000, 8156.000000, 8358.000000, 0.000000, 0.000000, 0.000000, 2.000000, 33.000004, 1557655767.829190, 4.000000, 4.000000, 0.000000, 4.000000, 4.000000
39.000000, 0.000000, 4200.512695, 4167.692383, 4065.640869, 4214.871582, 3702.563965, 0.000000, 8148.000000, 8354.000000, 0.000000, 0.000000, 0.000000, 2.000000, 40.799999, 1557655767.836990, 4.000000, 4.000000, 0.000000, 4.000000, 4.000000
40.000000, 0.000000, 4194.871582, 4175.897461, 4140.000000, 4209.743652, 3714.871582, 0.000000, 8150.000000, 8350.000000, 0.000000, 0.000000, 0.000000, 2.000000, 48.700001, 1557655767.844890, 4.000000, 4.000000, 0.000000, 4.000000, 4.000000
41.000000, 0.000000, 4178.461426, 4177.948730, 4209.743652, 4201.538574, 3710.769043, 0.000000, 8148.000000, 8348.000000, 0.000000, 0.000000, 0.000000, 2.000000, 56.399998, 1557655767.852590, 4.000000, 4.000000, 0.000000, 4.000000, 4.000000
42.000000, 0.000000, 4178.461426, 4174.871582, 4098.461426, 4209.230469, 3691.281982, 0.000000, 8147.000000, 8360.000000, 0.000000, 0.000000, 0.000000, 2.000000, 64.399998, 1557655767.860590, 4.000000, 4.000000, 0.000000, 4.000000, 4.000000
43.000000, 0.000000, 4182.051270, 4189.230469, 4143.589844, 4231.281738, 3693.333252, 0.000000, 8153.000000, 8353.000000, 0.000000, 0.000000, 0.000000, 2.000000, 72.399998, 1557655767.868590, 4.000000, 4.000000, 0.000000, 4.000000, 4.000000
44.000000, 0.000000, 4182.563965, 4202.051270, 4095.897217, 4236.410156, 3695.384521, 0.000000, 8153.000000, 8347.000000, 0.000000, 0.000000, 0.000000, 2.000000, 80.399998, 1557655767.876590, 4.000000, 4.000000, 0.000000, 4.000000, 4.000000
45.000000, 0.000000, 4182.563965, 4204.102539, 4155.897461, 4196.922852, 3691.281982, 0.000000, 8153.000000, 8358.000000, 0.000000, 0.000000, 0.000000, 2.000000, 88.200001, 1557655767.884390, 4.000000, 4.000000, 0.000000, 4.000000, 4.000000
46.000000, 0.000000, 4190.256348, 4208.717773, 4234.871582, 4204.102539, 3700.512695, 0.000000, 8155.000000, 8360.000000, 0.000000, 0.000000, 0.000000, 2.000000, 95.899998, 1557655767.892090, 4.000000, 4.000000, 0.000000, 4.000000, 4.000000
47.000000, 0.000000, 4201.025391, 4202.563965, 4092.820313, 4247.179199, 3706.153809, 0.000000, 8154.000000, 8355.000000, 0.000000, 0.000000, 0.000000, 2.000000, 103.700001, 1557655767.899890, 4.000000, 4.000000, 0.000000, 4.000000, 4.000000
48.000000, 0.000000, 4185.641113, 4197.436035, 4120.512695, 4235.897461, 3681.025635, 0.000000, 8162.000000, 8348.000000, 0.000000, 0.000000, 0.000000, 2.000000, 111.500004, 1557655767.907690, 4.000000, 4.000000, 0.000000, 4.000000, 4.000000
49.000000, 0.000000, 4147.692383, 4201.538574, 4102.051270, 4197.948730, 3643.589600, 0.000000, 8163.000000, 8358.000000, 0.000000, 0.000000, 0.000000, 2.000000, 119.500004, 1557655767.915690, 4.000000, 4.000000, 0.000000, 4.000000, 4.000000
50.000000, 0.000000, 4132.307617, 4196.922852, 4142.051270, 4194.871582, 3631.281982, 0.000000, 8155.000000, 8352.000000, 0.000000, 0.000000, 0.000000, 2.000000, 127.500004, 1557655767.923690, 4.000000, 4.000000, 0.000000, 4.000000, 4.000000
51.000000, 0.000000, 4149.230469, 4197.436035, 4210.256348, 4212.820313, 3636.923096, 0.000000, 8153.000000, 8350.000000, 0.000000, 0.000000, 0.000000, 2.000000, 135.399998, 1557655767.931590, 4.000000, 4.000000, 0.000000, 4.000000, 4.000000
52.000000, 0.000000, 4157.436035, 4206.153809, 4070.769043, 4214.358887, 3625.640869, 0.000000, 8158.000000, 8347.000000, 0.000000, 0.000000, 0.000000, 2.000000, 143.399998, 1557655767.939590, 4.000000, 4.000000, 0.000000, 4.000000, 4.000000
53.000000, 0.000000, 4154.358887, 4211.281738, 4135.897461, 4218.974121, 3623.076904, 0.000000, 8163.000000, 8345.000000, 0.000000, 0.000000, 0.000000, 2.000000, 151.399998, 1557655767.947590, 4.000000, 4.000000, 0.000000, 4.000000, 4.000000
54.000000, 0.000000, 4165.127930, 4228.717773, 4156.922852, 4237.436035, 3647.692139, 0.000000, 8153.000000, 8350.000000, 0.000000, 0.000000, 0.000000, 2.000000, 159.200001, 1557655767.955390, 4.000000, 4.000000, 0.000000, 4.000000, 4.000000
55.000000, 0.000000, 4166.666504, 4240.000000, 4140.512695, 4254.871582, 3651.794678, 0.000000, 8155.000000, 8354.000000, 0.000000, 0.000000, 0.000000, 2.000000, 167.000004, 1557655767.963190, 4.000000, 4.000000, 0.000000, 4.000000, 4.000000
56.000000, 0.000000, 4159.487305, 4235.897461, 4191.281738, 4255.384277, 3637.948730, 0.000000, 8162.000000, 8359.000000, 0.000000, 0.000000, 0.000000, 2.000000, 174.800007, 1557655767.970990, 4.000000, 4.000000, 0.000000, 4.000000, 4.000000
57.000000, 0.000000, 4171.794922, 4248.717773, 4061.025635, 4255.384277, 3639.487061, 0.000000, 8159.000000, 8348.000000, 0.000000, 0.000000, 0.000000, 2.000000, 182.500004, 1557655767.978690, 4.000000, 4.000000, 0.000000, 4.000000, 4.000000
58.000000, 0.000000, 4198.461426, 4266.666504, 4117.436035, 4260.000000, 3648.205078, 0.000000, 8157.000000, 8354.000000, 0.000000, 0.000000, 0.000000, 2.000000, 190.500004, 1557655767.986690, 4.000000, 4.000000, 0.000000, 4.000000, 4.000000
59.000000, 0.000000, 4224.615234, 4257.436035, 4155.897461, 4240.000000, 3648.717773, 0.000000, 8154.000000, 8352.000000, 0.000000, 0.000000, 0.000000, 2.000000, 198.500004, 1557655767.994690, 4.000000, 4.000000, 0.000000, 4.000000, 4.000000
60.000000, 0.000000, 4253.846191, 4244.615234, 4124.615234, 4222.051270, 3650.256348, 0.000000, 8157.000000, 8338.000000, 0.000000, 0.000000, 0.000000, 2.000000, 206.500004, 1557655768.002690, 4.000000, 4.000000, 0.000000, 4.000000, 4.000000
61.000000, 0.000000, 4286.666504, 4269.230469, 4177.436035, 4228.205078, 3660.512695, 0.000000, 8156.000000, 8338.000000, 0.000000, 0.000000, 0.000000, 2.000000, 214.500004, 1557655768.010690, 4.000000, 4.000000, 0.000000, 4.000000, 4.000000
62.000000, 0.000000, 4312.307617, 4308.717773, 4061.025635, 4220.000000, 3668.205078, 0.000000, 8158.000000, 8348.000000, 0.000000, 0.000000, 0.000000, 2.000000, 222.200001, 1557655768.018390, 4.000000, 4.000000, 0.000000, 4.000000, 4.000000
63.000000, 0.000000, 4336.410156, 4320.512695, 4131.794922, 4221.025391, 3673.845947, 0.000000, 8159.000000, 8345.000000, 0.000000, 0.000000, 0.000000, 2.000000, 229.999989, 1557655768.026190, 4.000000, 4.000000, 0.000000, 4.000000, 4.000000
64.000000, 0.000000, 4358.461426, 4306.153809, 4186.666504, 4266.153809, 3672.820313, 500.000000, 8156.000000, 8339.000000, 0.000000, 0.000000, 0.000000, 2.000000, 237.800007, 1557655768.033990, 4.000000, 4.000000, 0.000000, 4.000000, 4.000000
65.000000, 0.000000, 4358.974121, 4284.615234, 4102.563965, 4295.384277, 3669.230713, 500.000000, 8153.000000, 8338.000000, 0.000000, 0.000000, 0.000000, 2.000000, 245.599995, 1557655768.041790, 4.000000, 4.000000, 0.000000, 4.000000, 4.000000
66.000000, 0.000000, 4347.179199, 4292.307617, 4146.666504, 4267.179199, 3663.589600, 16205.000000, 8150.000000, 8333.000000, 0.000000, 0.000000, 0.000000, 2.000000, 253.499989, 1557655768.049690, 4.000000, 4.000000, 0.000000, 4.000000, 4.000000
67.000000, 0.000000, 4335.384277, 4314.871582, 4058.974365, 4238.974121, 3646.153809, 500.000000, 8148.000000, 8343.000000, 0.000000, 0.000000, 0.000000, 2.000000, 261.400013, 1557655768.057590, 4.000000, 4.000000, 0.000000, 4.000000, 4.000000
68.000000, 0.000000, 4325.641113, 4309.230469, 4126.666504, 4264.615234, 3634.871826, 16097.000000, 8142.000000, 8347.000000, 0.000000, 0.000000, 0.000000, 2.000000, 269.400013, 1557655768.065590, 4.000000, 4.000000, 0.000000, 4.000000, 4.000000
69.000000, 0.000000, 4318.461426, 4297.436035, 4202.051270, 4286.153809, 3633.845947, 500.000000, 8139.000000, 8356.000000, 0.000000, 0.000000, 0.000000, 2.000000, 277.400013, 1557655768.073590, 4.000000, 4.000000, 0.000000, 4.000000, 4.000000
70.000000, 0.000000, 4308.717773, 4316.410156, 4096.410156, 4264.615234, 3616.923096, 23.000000, 8145.000000, 8343.000000, 0.000000, 0.000000, 0.000000, 2.000000, 285.400013, 1557655768.081590, 4.000000, 4.000000, 0.000000, 4.000000, 4.000000
71.000000, 0.000000, 4298.974121, 4320.512695, 4132.307617, 4264.615234, 3600.000000, 500.000000, 8150.000000, 8346.000000, 0.000000, 0.000000, 0.000000, 2.000000, 293.200001, 1557655768.089390, 4.000000, 4.000000, 0.000000, 4.000000, 4.000000
72.000000, 0.000000, 4300.512695, 4290.769043, 4080.512695, 4285.641113, 3595.384521, 500.000000, 8142.000000, 8353.000000, 0.000000, 0.000000, 0.000000, 2.000000, 300.900013, 1557655768.097090, 4.000000, 4.000000, 0.000000, 4.000000, 4.000000
73.000000, 0.000000, 4303.076660, 4304.102539, 4144.615234, 4268.205078, 3589.743408, 16143.000000, 8139.000000, 8345.000000, 0.000000, 0.000000, 0.000000, 2.000000, 308.700001, 1557655768.104890, 4.000000, 4.000000, 0.000000, 4.000000, 4.000000
74.000000, 0.000000, 4302.563965, 4341.025391, 4218.461426, 4260.000000, 3587.179443, 500.000000, 8138.000000, 8352.000000, 0.000000, 0.000000, 0.000000, 2.000000, 316.499989, 1557655768.112690, 4.000000, 4.000000, 0.000000, 4.000000, 4.000000
75.000000, 0.000000, 4301.538574, 4324.615234, 4096.922852, 4318.461426, 3581.025635, 16181.000000, 8136.000000, 8363.000000, 0.000000, 0.000000, 0.000000, 2.000000, 324.499989, 1557655768.120690, 4.000000, 4.000000, 0.000000, 4.000000, 4.000000
76.000000, 0.000000, 4300.000000, 4312.307617, 4146.153809, 4353.333008, 3563.589600, 500.000000, 8147.000000, 8356.000000, 0.000000, 0.000000, 0.000000, 2.000000, 332.499989, 1557655768.128690, 4.000000, 4.000000, 0.000000, 4.000000, 4.000000
77.000000, 0.000000, 4297.948730, 4329.230469, 4125.641113, 4313.333008, 3554.871826, 500.000000, 8141.000000, 8345.000000, 0.000000, 0.000000, 0.000000, 2.000000, 340.400013, 1557655768.136590, 4.000000, 4.000000, 0.000000, 4.000000, 4.000000
78.000000, 0.000000, 4290.256348, 4326.153809, 4165.641113, 4287.692383, 3554.358887, 450.000000, 8146.000000, 8346.000000, 0.000000, 0.000000, 0.000000, 2.000000, 348.200001, 1557655768.144390, 4.000000, 4.000000, 0.000000, 4.000000, 4.000000
79.000000, 0.000000, 4288.717773, 4333.333008, 4238.461426, 4325.641113, 3540.000000, 16181.000000, 8151.000000, 8348.000000, 0.000000, 0.000000, 0.000000, 2.000000, 355.999989, 1557655768.152190, 4.000000, 4.000000, 0.000000, 4.000000, 4.000000
80.000000, 0.000000, 4295.384277, 4339.487305, 4098.461426, 4364.102539, 3524.615234, 450.000000, 8154.000000, 8346.000000, 0.000000, 0.000000, 0.000000, 2.000000, 363.800007, 1557655768.159990, 4.000000, 4.000000, 0.000000, 4.000000, 4.000000
81.000000, 0.000000, 4303.076660, 4325.127930, 4127.692383, 4327.179199, 3538.974365, 450.000000, 8153.000000, 8349.000000, 0.000000, 0.000000, 0.000000, 2.000000, 371.700001, 1557655768.167890, 4.000000, 4.000000, 0.000000, 4.000000, 4.000000
82.000000, 0.000000, 4314.871582, 4354.871582, 4127.692383, 4270.256348, 3556.410156, 450.000000, 8152.000000, 8350.000000, 0.000000, 0.000000, 0.000000, 2.000000, 379.400013, 1557655768.175590, 4.000000, 4.000000, 0.000000, 4.000000, 4.000000
83.000000, 0.000000, 4329.230469, 4382.563965, 4158.974121, 4300.512695, 3558.461426, 16181.000000, 8150.000000, 8343.000000, 0.000000, 0.000000, 0.000000, 2.000000, 387.400013, 1557655768.183590, 4.000000, 4.000000, 0.000000, 4.000000, 4.000000
84.000000, 0.000000, 4333.333008, 4343.076660, 4223.589844, 4366.153809, 3558.974365, 450.000000, 8154.000000, 8339.000000, 0.000000, 0.000000, 0.000000, 2.000000, 395.400013, 1557655768.191590, 4.000000, 4.000000, 0.000000, 4.000000, 4.000000
85.000000, 0.000000, 4335.897461, 4337.948730, 4081.025635, 4365.641113, 3563.076904, 450.000000, 8153.000000, 8347.000000, 0.000000, 0.000000, 0.000000, 2.000000, 403.400013, 1557655768.199590, 4.000000, 4.000000, 0.000000, 4.000000, 4.000000
86.000000, 0.000000, 4346.666504, 4386.666504, 4151.794922, 4346.153809, 3583.589600, 450.000000, 8153.000000, 8345.000000, 0.000000, 0.000000, 0.000000, 2.000000, 411.400013, 1557655768.207590, 4.000000, 4.000000, 0.000000, 4.000000, 4.000000
87.000000, 0.000000, 4350.256348, 4381.025391, 4189.743652, 4361.538574, 3606.666504, 16181.000000, 8154.000000, 8335.000000, 0.000000, 0.000000, 0.000000, 2.000000, 419.099995, 1557655768.215290, 4.000000, 4.000000, 0.000000, 4.000000, 4.000000
88.000000, 0.000000, 4354.358887, 4362.051270, 4149.230469, 4386.666504, 3611.794678, 450.000000, 8153.000000, 8343.000000, 0.000000, 0.000000, 0.000000, 2.000000, 426.900013, 1557655768.223090, 4.000000, 4.000000, 0.000000, 4.000000, 4.000000
89.000000, 0.000000, 4362.563965, 4385.641113, 4183.589844, 4388.205078, 3607.179443, 450.000000, 8146.000000, 8340.000000, 0.000000, 0.000000, 0.000000, 2.000000, 434.700001, 1557655768.230890, 4.000000, 4.000000, 0.000000, 4.000000, 4.000000
90.000000, 0.000000, 4345.641113, 4377.948730, 4052.307617, 4368.717773, 3595.384521, 450.000000, 8149.000000, 8326.000000, 0.000000, 0.000000, 0.000000, 2.000000, 442.599995, 1557655768.238790, 4.000000, 4.000000, 0.000000, 4.000000, 4.000000
91.000000, 0.000000, 4322.051270, 4332.820313, 4126.153809, 4354.358887, 3587.692139, 16181.000000, 8152.000000, 8323.000000, 0.000000, 0.000000, 0.000000, 2.000000, 450.599995, 1557655768.246790, 4.000000, 4.000000, 0.000000, 4.000000, 4.000000
92.000000, 0.000000, 4324.615234, 4326.153809, 4193.846191, 4357.435547, 3585.128174, 450.000000, 8147.000000, 8331.000000, 0.000000, 0.000000, 0.000000, 2.000000, 458.499989, 1557655768.254690, 4.000000, 4.000000, 0.000000, 4.000000, 4.000000
93.000000, 0.000000, 4330.769043, 4364.102539, 4125.127930, 4367.179199, 3577.948730, 450.000000, 8143.000000, 8325.000000, 0.000000, 0.000000, 0.000000, 2.000000, 466.499989, 1557655768.262690, 4.000000, 4.000000, 0.000000, 4.000000, 4.000000
94.000000, 0.000000, 4332.307617, 4381.025391, 4160.000000, 4361.025391, 3577.435791, 450.000000, 8145.000000, 8325.000000, 0.000000, 0.000000, 0.000000, 2.000000, 474.499989, 1557655768.270690, 4.000000, 4.000000, 0.000000, 4.000000, 4.000000
95.000000, 0.000000, 4335.384277, 4364.102539, 4066.666504, 4363.589844, 3580.512695, 16181.000000, 8138.000000, 8325.000000, 0.000000, 0.000000, 0.000000, 2.000000, 482.299976, 1557655768.278490, 4.000000, 4.000000, 0.000000, 4.000000, 4.000000
96.000000, 0.000000, 4332.820313, 4334.871582, 4138.461426, 4381.025391, 3584.102539, 450.000000, 8144.000000, 8316.000000, 0.000000, 0.000000, 0.000000, 2.000000, 490.100025, 1557655768.286290, 4.000000, 4.000000, 0.000000, 4.000000, 4.000000
97.000000, 0.000000, 4338.974121, 4304.102539, 4194.871582, 4368.717773, 3592.820313, 450.000000, 8145.000000, 8313.000000, 0.000000, 0.000000, 0.000000, 2.000000, 497.799976, 1557655768.293990, 4.000000, 4.000000, 0.000000, 4.000000, 4.000000
98.000000, 0.000000, 4343.076660, 4311.794922, 4093.333252, 4353.846191, 3603.589600, 450.000000, 8142.000000, 8317.000000, 0.000000, 0.000000, 0.000000, 2.000000, 505.600025, 1557655768.301790, 4.000000, 4.000000, 0.000000, 4.000000, 4.000000
99.000000, 0.000000, 4334.871582, 4351.281738, 4145.127930, 4388.205078, 3610.256348, 16181.000000, 8138.000000, 8318.000000, 0.000000, 0.000000, 0.000000, 2.000000, 513.600025, 1557655768.309790, 4.000000, 4.000000, 0.000000, 4.000000, 4.000000
100.000000, 0.000000, 4332.820313, 4357.435547, 4079.487061, 4426.153809, 3609.743408, 450.000000, 8136.000000, 8305.000000, 0.000000, 0.000000, 0.000000, 2.000000, 521.600025, 1557655768.317790, 4.000000, 4.000000, 0.000000, 4.000000, 4.000000
101.000000, 0.000000, 4341.025391, 4329.743652, 4131.281738, 4387.692383, 3615.897461, 450.000000, 8131.000000, 8303.000000, 0.000000, 0.000000, 0.000000, 2.000000, 529.600025, 1557655768.325790, 4.000000, 4.000000, 0.000000, 4.000000, 4.000000
102.000000, 0.000000, 4337.436035, 4325.127930, 4205.127930, 4346.153809, 3618.461426, 450.000000, 8126.000000, 8313.000000, 0.000000, 0.000000, 0.000000, 2.000000, 537.499989, 1557655768.333690, 4.000000, 4.000000, 0.000000, 4.000000, 4.000000
103.000000, 0.000000, 4317.948730, 4350.769043, 4086.666504, 4354.358887, 3603.589600, 16181.000000, 8128.000000, 8296.000000, 0.000000, 0.000000, 0.000000, 2.000000, 545.299976, 1557655768.341490, 4.000000, 4.000000, 0.000000, 4.000000, 4.000000
104.000000, 0.000000, 4316.410156, 4360.512695, 4117.436035, 4365.641113, 3607.179443, 450.000000, 8132.000000, 8295.000000, 0.000000, 0.000000, 0.000000, 2.000000, 553.100025, 1557655768.349290, 4.000000, 4.000000, 0.000000, 4.000000, 4.000000
105.000000, 0.000000, 4357.435547, 4350.769043, 4086.666504, 4372.820313, 3640.512695, 450.000000, 8130.000000, 8299.000000, 0.000000, 0.000000, 0.000000, 2.000000, 560.900013, 1557655768.357090, 4.000000, 4.000000, 0.000000, 4.000000, 4.000000
106.000000, 0.000000, 4401.538574, 4331.281738, 4150.256348, 4377.435547, 3671.794678, 450.000000, 8123.000000, 8297.000000, 0.000000, 0.000000, 0.000000, 2.000000, 568.700001, 1557655768.364890, 4.000000, 4.000000, 0.000000, 4.000000, 4.000000
107.000000, 0.000000, 4422.051270, 4326.153809, 4215.384277, 4394.358887, 3701.025635, 16181.000000, 8115.000000, 8297.000000, 0.000000, 0.000000, 0.000000, 2.000000, 576.499989, 1557655768.372690, 4.000000, 4.000000, 0.000000, 4.000000, 4.000000
108.000000, 0.000000, 4448.717773, 4354.358887, 4077.435791, 4435.384277, 3740.000000, 450.000000, 8128.000000, 8304.000000, 0.000000, 0.000000, 0.000000, 2.000000, 584.499989, 1557655768.380690, 4.000000, 4.000000, 0.000000, 4.000000, 4.000000
109.000000, 0.000000, 4475.384277, 4374.358887, 4146.666504, 4460.512695, 3756.410156, 450.000000, 8129.000000, 8296.000000, 0.000000, 0.000000, 0.000000, 2.000000, 592.499989, 1557655768.388690, 4.000000, 4.000000, 0.000000, 4.000000, 4.000000
110.000000, 0.000000, 4475.384277, 4371.794922, 4146.153809, 4421.025391, 3753.845947, 450.000000, 8127.000000, 8296.000000, 0.000000, 0.000000, 0.000000, 2.000000, 600.499989, 1557655768.396690, 4.000000, 4.000000, 0.000000, 4.000000, 4.000000
111.000000, 0.000000, 4470.256348, 4372.307617, 4150.769043, 4381.538574, 3766.153809, 16181.000000, 8125.000000, 8303.000000, 0.000000, 0.000000, 0.000000, 2.000000, 608.499989, 1557655768.404690, 4.000000, 4.000000, 0.000000, 4.000000, 4.000000
112.000000, 0.000000, 4471.794922, 4373.846191, 4215.897461, 4414.871582, 3777.435791, 450.000000, 8129.000000, 8310.000000, 0.000000, 0.000000, 0.000000, 2.000000, 616.200001, 1557655768.412390, 4.000000, 4.000000, 0.000000, 4.000000, 4.000000
113.000000, 0.000000, 4464.615234, 4374.871582, 4079.487061, 4443.076660, 3771.281982, 450.000000, 8136.000000, 8299.000000, 0.000000, 0.000000, 0.000000, 2.000000, 623.999989, 1557655768.420190, 4.000000, 4.000000, 0.000000, 4.000000, 4.000000
114.000000, 0.000000, 4454.871582, 4392.307617, 4126.153809, 4419.487305, 3766.666504, 450.000000, 8140.000000, 8291.000000, 0.000000, 0.000000, 0.000000, 2.000000, 631.799976, 1557655768.427990, 4.000000, 4.000000, 0.000000, 4.000000, 4.000000
115.000000, 0.000000, 4457.435547, 4401.538574, 4161.025391, 4385.641113, 3770.256348, 16181.000000, 8145.000000, 8301.000000, 0.000000, 0.000000, 0.000000, 2.000000, 639.600025, 1557655768.435790, 4.000000, 4.000000, 0.000000, 4.000000, 4.000000
116.000000, 0.000000, 4459.487305, 4383.589844, 4169.230469, 4398.974121, 3779.487061, 450.000000, 8147.000000, 8298.000000, 0.000000, 0.000000, 0.000000, 2.000000, 647.600025, 1557655768.443790, 4.000000, 4.000000, 0.000000, 4.000000, 4.000000
117.000000, 0.000000, 4450.256348, 4363.076660, 4217.436035, 4443.076660, 3783.076904, 450.000000, 8153.000000, 8289.000000, 0.000000, 0.000000, 0.000000, 2.000000, 655.499989, 1557655768.451690, 4.000000, 4.000000, 0.000000, 4.000000, 4.000000
118.000000, 0.000000, 4443.589844, 4344.615234, 4075.384521, 4446.666504, 3784.615234, 450.000000, 8152.000000, 8298.000000, 0.000000, 0.000000, 0.000000, 2.000000, 663.499989, 1557655768.459690, 4.000000, 4.000000, 0.000000, 4.000000, 4.000000
119.000000, 0.000000, 4452.307617, 4345.127930, 4158.974121, 4426.153809, 3792.307617, 16181.000000, 8146.000000, 8293.000000, 0.000000, 0.000000, 0.000000, 2.000000, 671.499989, 1557655768.467690, 4.000000, 4.000000, 0.000000, 4.000000, 4.000000
120.000000, 0.000000, 4456.922852, 4342.051270, 4222.051270, 4422.051270, 3789.230713, 450.000000, 8151.000000, 8285.000000, 0.000000, 0.000000, 0.000000, 2.000000, 679.499989, 1557655768.475690, 4.000000, 4.000000, 0.000000, 4.000000, 4.000000
121.000000, 0.000000, 4438.974121, 4299.487305, 4148.205078, 4409.230469, 3791.281982, 450.000000, 8152.000000, 8285.000000, 0.000000, 0.000000, 0.000000, 2.000000, 687.299976, 1557655768.483490, 4.000000, 4.000000, 0.000000, 4.000000, 4.000000
122.000000, 0.000000, 4428.205078, 4287.692383, 4171.281738, 4385.641113, 3812.307617, 450.000000, 8147.000000, 8290.000000, 0.000000, 0.000000, 0.000000, 2.000000, 694.999989, 1557655768.491190, 4.000000, 4.000000, 0.000000, 4.000000, 4.000000
123.000000, 0.000000, 4428.205078, 4311.281738, 4076.923096, 4385.641113, 3806.153809, 16181.000000, 8148.000000, 8286.000000, 0.000000, 0.000000, 0.000000, 2.000000, 702.799976, 1557655768.498990, 4.000000, 4.000000, 0.000000, 4.000000, 4.000000
124.000000, 0.000000, 4423.589844, 4303.589844, 4165.641113, 4402.563965, 3788.205078, 450.000000, 8146.000000, 8288.000000, 0.000000, 0.000000, 0.000000, 2.000000, 710.600025, 1557655768.506790, 4.000000, 4.000000, 0.000000, 4.000000, 4.000000
125.000000, 0.000000, 4422.051270, 4278.461426, 4218.461426, 4398.461426, 3809.743408, 450.000000, 8140.000000, 8297.000000, 0.000000, 0.000000, 0.000000, 2.000000, 718.600025, 1557655768.514790, 4.000000, 4.000000, 0.000000, 4.000000, 4.000000
126.000000, 0.000000, 4424.615234, 4248.717773, 4122.051270, 4382.563965, 3827.692139, 450.000000, 8142.000000, 8280.000000, 0.000000, 0.000000, 0.000000, 2.000000, 726.499989, 1557655768.522690, 4.000000, 4.000000, 0.000000, 4.000000, 4.000000
127.000000, 0.000000, 4445.127930, 4218.974121, 4182.563965, 4407.179199, 3823.589600, 16181.000000, 8138.000000, 8285.000000, 0.000000, 0.000000, 0.000000, 2.000000, 734.400013, 1557655768.530590, 4.000000, 4.000000, 0.000000, 4.000000, 4.000000
128.000000, 0.000000, 4484.102539, 4238.974121, 4114.871582, 4444.615234, 3852.307617, 500.000000, 8133.000000, 8297.000000, 0.000000, 0.000000, 0.000000, 2.000000, 742.400013, 1557655768.538590, 4.000000, 4.000000, 0.000000, 4.000000, 4.000000
0.000000, 0.000000, 4493.846191, 4262.051270, 4158.974121, 4444.102539, 3898.461426, 500.000000, 8129.000000, 8303.000000, 0.000000, 0.000000, 0.000000, 2.000000, 750.200001, 1557655768.546390, 4.000000, 4.000000, 0.000000, 4.000000, 4.000000
1.000000, 0.000000, 4472.307617, 4224.102539, 4212.820313, 4432.820313, 3904.615234, 500.000000, 8127.000000, 8291.000000, 0.000000, 0.000000, 0.000000, 2.000000, 757.999989, 1557655768.554190, 4.000000, 4.000000, 0.000000, 4.000000, 4.000000
2.000000, 0.000000, 4464.615234, 4188.717773, 4111.794922, 4440.000000, 3880.512695, 16186.000000, 8136.000000, 8295.000000, 0.000000, 0.000000, 0.000000, 2.000000, 765.799976, 1557655768.561990, 4.000000, 4.000000, 0.000000, 4.000000, 4.000000
3.000000, 0.000000, 4472.307617, 4206.666504, 4169.743652, 4438.974121, 3886.153809, 500.000000, 8138.000000, 8306.000000, 0.000000, 0.000000, 0.000000, 2.000000, 773.499989, 1557655768.569690, 4.000000, 4.000000, 0.000000, 4.000000, 4.000000
4.000000, 0.000000, 4468.205078, 4228.717773, 4115.897461, 4420.512695, 3902.563965, 16057.000000, 8134.000000, 8312.000000, 0.000000, 0.000000, 0.000000, 2.000000, 781.499989, 1557655768.577690, 4.000000, 4.000000, 0.000000, 4.000000, 4.000000
5.000000, 0.000000, 4454.358887, 4210.769043, 4151.281738, 4425.127930, 3892.820313, 500.000000, 8130.000000, 8307.000000, 0.000000, 0.000000, 0.000000, 2.000000, 789.499989, 1557655768.585690, 4.000000, 4.000000, 0.000000, 4.000000, 4.000000
6.000000, 0.000000, 4456.922852, 4188.717773, 4224.102539, 4430.256348, 3890.769043, 28.000000, 8128.000000, 8310.000000, 0.000000, 0.000000, 0.000000, 2.000000, 797.299976, 1557655768.593490, 4.000000, 4.000000, 0.000000, 4.000000, 4.000000
7.000000, 0.000000, 4468.717773, 4187.179199, 4092.307617, 4404.102539, 3905.128174, 500.000000, 8135.000000, 8317.000000, 0.000000, 0.000000, 0.000000, 2.000000, 805.299976, 1557655768.601490, 4.000000, 4.000000, 0.000000, 4.000000, 4.000000
8.000000, 0.000000, 4466.153809, 4194.358887, 4123.076660, 4398.974121, 3916.923096, 500.000000, 8132.000000, 8317.000000, 0.000000, 0.000000, 0.000000, 2.000000, 812.999989, 1557655768.609190, 4.000000, 4.000000, 0.000000, 4.000000, 4.000000
9.000000, 0.000000, 4460.512695, 4219.487305, 4117.948730, 4433.846191, 3931.794678, 16138.000000, 8137.000000, 8324.000000, 0.000000, 0.000000, 0.000000, 2.000000, 820.799976, 1557655768.616990, 4.000000, 4.000000, 0.000000, 4.000000, 4.000000
10.000000, 0.000000, 4454.871582, 4208.205078, 4170.769043, 4448.717773, 3944.615234, 500.000000, 8138.000000, 8318.000000, 0.000000, 0.000000, 0.000000, 2.000000, 828.600025, 1557655768.624790, 4.000000, 4.000000, 0.000000, 4.000000, 4.000000
11.000000, 0.000000, 4444.102539, 4170.769043, 4230.769043, 4436.410156, 3932.820313, 16181.000000, 8139.000000, 8327.000000, 0.000000, 0.000000, 0.000000, 2.000000, 836.499989, 1557655768.632690, 4.000000, 4.000000, 0.000000, 4.000000, 4.000000
12.000000, 0.000000, 4435.897461, 4180.512695, 4085.128174, 4441.025391, 3905.128174, 500.000000, 8142.000000, 8338.000000, 0.000000, 0.000000, 0.000000, 2.000000, 844.499989, 1557655768.640690, 4.000000, 4.000000, 0.000000, 4.000000, 4.000000
13.000000, 0.000000, 4427.179199, 4195.384277, 4156.410156, 4424.102539, 3890.769043, 500.000000, 8148.000000, 8338.000000, 0.000000, 0.000000, 0.000000, 2.000000, 852.400013, 1557655768.648590, 4.000000, 4.000000, 0.000000, 4.000000, 4.000000
14.000000, 0.000000, 4412.307617, 4167.692383, 4174.358887, 4395.384277, 3887.692139, 450.000000, 8147.000000, 8330.000000, 0.000000, 0.000000, 0.000000, 2.000000, 860.400013, 1557655768.656590, 4.000000, 4.000000, 0.000000, 4.000000, 4.000000
15.000000, 0.000000, 4412.307617, 4160.512695, 4156.922852, 4397.435547, 3903.076904, 16181.000000, 8146.000000, 8336.000000, 0.000000, 0.000000, 0.000000, 2.000000, 868.400013, 1557655768.664590, 4.000000, 4.000000, 0.000000, 4.000000, 4.000000
16.000000, 0.000000, 4431.281738, 4195.897461, 4214.358887, 4415.384277, 3924.615234, 0.000000, 8147.000000, 8345.000000, 0.000000, 0.000000, 0.000000, 2.000000, 876.400013, 1557655768.672590, 4.000000, 4.000000, 0.000000, 4.000000, 4.000000
17.000000, 0.000000, 4438.461426, 4194.358887, 4094.358887, 4431.281738, 3933.845947, 0.000000, 8147.000000, 8347.000000, 0.000000, 0.000000, 0.000000, 2.000000, 884.200001, 1557655768.680390, 4.000000, 4.000000, 0.000000, 4.000000, 4.000000
18.000000, 0.000000, 4437.948730, 4189.230469, 4166.153809, 4442.051270, 3950.256348, 0.000000, 8150.000000, 8342.000000, 0.000000, 0.000000, 0.000000, 2.000000, 891.900013, 1557655768.688090, 4.000000, 4.000000, 0.000000, 4.000000, 4.000000
19.000000, 0.000000, 4453.333008, 4223.589844, 4201.538574, 4450.769043, 3968.717773, 0.000000, 8153.000000, 8349.000000, 0.000000, 0.000000, 0.000000, 2.000000, 899.700001, 1557655768.695890, 4.000000, 4.000000, 0.000000, 4.000000, 4.000000
20.000000, 0.000000, 4468.717773, 4226.153809, 4152.820313, 4453.846191, 3964.102539, 0.000000, 8158.000000, 8342.000000, 0.000000, 0.000000, 0.000000, 2.000000, 907.600025, 1557655768.703790, 4.000000, 4.000000, 0.000000, 4.000000, 4.000000
21.000000, 0.000000, 4468.717773, 4193.333008, 4207.692383, 4451.794922, 3952.820313, 0.000000, 8151.000000, 8347.000000, 0.000000, 0.000000, 0.000000, 2.000000, 915.600025, 1557655768.711790, 4.000000, 4.000000, 0.000000, 4.000000, 4.000000
22.000000, 0.000000, 4466.153809, 4196.922852, 4110.256348, 4447.692383, 3961.025635, 0.000000, 8150.000000, 8349.000000, 0.000000, 0.000000, 0.000000, 2.000000, 923.499989, 1557655768.719690, 4.000000, 4.000000, 0.000000, 4.000000, 4.000000
23.000000, 0.000000, 4471.794922, 4245.127930, 4176.410156, 4455.384277, 3982.563965, 0.000000, 8151.000000, 8343.000000, 0.000000, 0.000000, 0.000000, 2.000000, 931.400013, 1557655768.727590, 4.000000, 4.000000, 0.000000, 4.000000, 4.000000
24.000000, 0.000000, 4463.076660, 4243.076660, 4209.230469, 4450.769043, 3982.563965, 0.000000, 8151.000000, 8347.000000, 0.000000, 0.000000, 0.000000, 2.000000, 939.400013, 1557655768.735590, 4.000000, 4.000000, 0.000000, 4.000000, 4.000000
25.000000, 0.000000, 4438.974121, 4195.897461, 4113.333008, 4431.281738, 3961.025635, 0.000000, 8145.000000, 8357.000000, 0.000000, 0.000000, 0.000000, 2.000000, 947.200001, 1557655768.743390, 4.000000, 4.000000, 0.000000, 4.000000, 4.000000
26.000000, 0.000000, 4434.358887, 4184.615234, 4155.897461, 4442.051270, 3971.794678, 0.000000, 8149.000000, 8360.000000, 0.000000, 0.000000, 0.000000, 2.000000, 954.999989, 1557655768.751190, 4.000000, 4.000000, 0.000000, 4.000000, 4.000000
27.000000, 0.000000, 4451.794922, 4215.384277, 4080.000000, 4446.666504, 4002.563965, 0.000000, 8149.000000, 8351.000000, 0.000000, 0.000000, 0.000000, 2.000000, 962.799976, 1557655768.758990, 4.000000, 4.000000, 0.000000, 4.000000, 4.000000
28.000000, 0.000000, 4465.127930, 4229.743652, 4161.538574, 4427.179199, 4008.717773, 0.000000, 8145.000000, 8360.000000, 0.000000, 0.000000, 0.000000, 2.000000, 970.500001, 1557655768.766690, 4.000000, 4.000000, 0.000000, 4.000000, 4.000000
29.000000, 0.000000, 4466.153809, 4220.000000, 4233.846191, 4436.410156, 4007.179443, 0.000000, 8149.000000, 8363.000000, 0.000000, 0.000000, 0.000000, 2.000000, 978.400001, 1557655768.774590, 4.000000, 4.000000, 0.000000, 4.000000, 4.000000
30.000000, 0.000000, 4458.461426, 4235.897461, 4122.563965, 4454.358887, 4016.923096, 0.000000, 8142.000000, 8374.000000, 0.000000, 0.000000, 0.000000, 2.000000, 986.400002, 1557655768.782590, 4.000000, 4.000000, 0.000000, 4.000000, 4.000000
31.000000, 0.000000, 4451.281738, 4238.461426, 4152.820313, 4435.897461, 4027.179443, 0.000000, 8145.000000, 8368.000000, 0.000000, 0.000000, 0.000000, 2.000000, 994.400002, 1557655768.790590, 4.000000, 4.000000, 0.000000, 4.000000, 4.000000
32.000000, 0.000000, 4449.230469, 4208.717773, 4085.640869, 4415.897461, 4019.487061, 0.000000, 8146.000000, 8376.000000, 0.000000, 0.000000, 0.000000, 3.000000, 2.400002, 1557655768.798590, 4.000000, 4.000000, 0.000000, 4.000000, 4.000000
33.000000, 0.000000, 4443.589844, 4197.436035, 4133.333008, 4414.871582, 4014.358887, 0.000000, 8146.000000, 8373.000000, 0.000000, 0.000000, 0.000000, 3.000000, 10.299999, 1557655768.806490, 4.000000, 4.000000, 0.000000, 4.000000, 4.000000
34.000000, 0.000000, 4444.102539, 4207.179199, 4191.794922, 4416.922852, 4028.205078, 0.000000, 8143.000000, 8372.000000, 0.000000, 0.000000, 0.000000, 3.000000, 18.100002, 1557655768.814290, 4.000000, 4.000000, 0.000000, 4.000000, 4.000000
35.000000, 0.000000, 4447.179199, 4224.102539, 4067.692139, 4415.384277, 4025.640869, 0.000000, 8137.000000, 8377.000000, 0.000000, 0.000000, 0.000000, 3.000000, 25.900002, 1557655768.822090, 4.000000, 4.000000, 0.000000, 4.000000, 4.000000
36.000000, 0.000000, 4427.179199, 4219.487305, 4127.179199, 4397.948730, 3997.435791, 0.000000, 8138.000000, 8377.000000, 0.000000, 0.000000, 0.000000, 3.000000, 33.700001, 1557655768.829890, 4.000000, 4.000000, 0.000000, 4.000000, 4.000000
37.000000, 0.000000, 4396.922852, 4172.307617, 4097.948730, 4356.410156, 3976.410156, 0.000000, 8144.000000, 8373.000000, 0.000000, 0.000000, 0.000000, 3.000000, 41.600002, 1557655768.837790, 4.000000, 4.000000, 0.000000, 4.000000, 4.000000
38.000000, 0.000000, 4378.974121, 4139.487305, 4129.743652, 4339.487305, 3966.666504, 0.000000, 8143.000000, 8372.000000, 0.000000, 0.000000, 0.000000, 3.000000, 49.600002, 1557655768.845790, 4.000000, 4.000000, 0.000000, 4.000000, 4.000000
39.000000, 0.000000, 4374.871582, 4154.871582, 4204.102539, 4353.333008, 3954.358887, 0.000000, 8143.000000, 8383.000000, 0.000000, 0.000000, 0.000000, 3.000000, 57.500004, 1557655768.853690, 4.000000, 4.000000, 0.000000, 4.000000, 4.000000
40.000000, 0.000000, 4372.820313, 4146.666504, 4069.743408, 4334.871582, 3953.333252, 0.000000, 8147.000000, 8369.000000, 0.000000, 0.000000, 0.000000, 3.000000, 65.500004, 1557655768.861690, 4.000000, 4.000000, 0.000000, 4.000000, 4.000000
41.000000, 0.000000, 4370.769043, 4122.051270, 4112.307617, 4306.153809, 3970.769043, 0.000000, 8148.000000, 8370.000000, 0.000000, 0.000000, 0.000000, 3.000000, 73.500004, 1557655768.869690, 4.000000, 4.000000, 0.000000, 4.000000, 4.000000
42.000000, 0.000000, 4384.615234, 4149.743652, 4125.127930, 4324.102539, 3982.051270, 0.000000, 8143.000000, 8379.000000, 0.000000, 0.000000, 0.000000, 3.000000, 81.299999, 1557655768.877490, 4.000000, 4.000000, 0.000000, 4.000000, 4.000000
43.000000, 0.000000, 4403.076660, 4178.974121, 4156.922852, 4358.461426, 3986.666504, 0.000000, 8148.000000, 8377.000000, 0.000000, 0.000000, 0.000000, 3.000000, 89.100002, 1557655768.885290, 4.000000, 4.000000, 0.000000, 4.000000, 4.000000
44.000000, 0.000000, 4392.307617, 4152.307617, 4218.461426, 4347.179199, 3986.153809, 0.000000, 8156.000000, 8368.000000, 0.000000, 0.000000, 0.000000, 3.000000, 96.800007, 1557655768.892990, 4.000000, 4.000000, 0.000000, 4.000000, 4.000000
45.000000, 0.000000, 4366.153809, 4119.487305, 4082.563965, 4311.281738, 3981.025635, 0.000000, 8158.000000, 8373.000000, 0.000000, 0.000000, 0.000000, 3.000000, 104.599995, 1557655768.900790, 4.000000, 4.000000, 0.000000, 4.000000, 4.000000
46.000000, 0.000000, 4359.487305, 4140.512695, 4160.512695, 4316.410156, 3980.512695, 0.000000, 8158.000000, 8376.000000, 0.000000, 0.000000, 0.000000, 3.000000, 112.599995, 1557655768.908790, 4.000000, 4.000000, 0.000000, 4.000000, 4.000000
47.000000, 0.000000, 4363.589844, 4170.256348, 4198.974121, 4326.666504, 3976.923096, 0.000000, 8159.000000, 8373.000000, 0.000000, 0.000000, 0.000000, 3.000000, 120.599995, 1557655768.916790, 4.000000, 4.000000, 0.000000, 4.000000, 4.000000
48.000000, 0.000000, 4350.769043, 4134.871582, 4161.538574, 4294.358887, 3968.717773, 0.000000, 8158.000000, 8370.000000, 0.000000, 0.000000, 0.000000, 3.000000, 128.599995, 1557655768.924790, 4.000000, 4.000000, 0.000000, 4.000000, 4.000000
49.000000, 0.000000, 4345.641113, 4102.563965, 4192.307617, 4274.358887, 3966.666504, 0.000000, 8164.000000, 8367.000000, 0.000000, 0.000000, 0.000000, 3.000000, 136.500004, 1557655768.932690, 4.000000, 4.000000, 0.000000, 4.000000, 4.000000
50.000000, 0.000000, 4356.922852, 4135.897461, 4067.692139, 4291.794922, 3963.076904, 0.000000, 8159.000000, 8357.000000, 0.000000, 0.000000, 0.000000, 3.000000, 144.300007, 1557655768.940490, 4.000000, 4.000000, 0.000000, 4.000000, 4.000000
51.000000, 0.000000, 4350.256348, 4157.436035, 4157.948730, 4278.974121, 3956.923096, 0.000000, 8162.000000, 8365.000000, 0.000000, 0.000000, 0.000000, 3.000000, 152.099995, 1557655768.948290, 4.000000, 4.000000, 0.000000, 4.000000, 4.000000
52.000000, 0.000000, 4343.589844, 4141.025391, 4220.000000, 4242.051270, 3958.461426, 0.000000, 8158.000000, 8361.000000, 0.000000, 0.000000, 0.000000, 3.000000, 159.899998, 1557655768.956090, 4.000000, 4.000000, 0.000000, 4.000000, 4.000000
53.000000, 0.000000, 4360.512695, 4134.871582, 4143.076660, 4245.641113, 3959.487061, 0.000000, 8160.000000, 8349.000000, 0.000000, 0.000000, 0.000000, 3.000000, 167.700001, 1557655768.963890, 4.000000, 4.000000, 0.000000, 4.000000, 4.000000
54.000000, 0.000000, 4375.897461, 4150.769043, 4181.025391, 4272.307617, 3954.871582, 0.000000, 8154.000000, 8348.000000, 0.000000, 0.000000, 0.000000, 3.000000, 175.599995, 1557655768.971790, 4.000000, 4.000000, 0.000000, 4.000000, 4.000000
55.000000, 0.000000, 4376.410156, 4154.358887, 4088.717773, 4285.127930, 3960.000000, 0.000000, 8145.000000, 8358.000000, 0.000000, 0.000000, 0.000000, 3.000000, 183.500004, 1557655768.979690, 4.000000, 4.000000, 0.000000, 4.000000, 4.000000
56.000000, 0.000000, 4384.615234, 4145.641113, 4148.717773, 4287.692383, 3980.512695, 0.000000, 8153.000000, 8359.000000, 0.000000, 0.000000, 0.000000, 3.000000, 191.500004, 1557655768.987690, 4.000000, 4.000000, 0.000000, 4.000000, 4.000000
57.000000, 0.000000, 4391.794922, 4161.025391, 4200.512695, 4278.461426, 3995.384521, 0.000000, 8150.000000, 8351.000000, 0.000000, 0.000000, 0.000000, 3.000000, 199.500004, 1557655768.995690, 4.000000, 4.000000, 0.000000, 4.000000, 4.000000
58.000000, 0.000000, 4365.641113, 4172.820313, 4111.281738, 4258.461426, 3984.615234, 0.000000, 8151.000000, 8346.000000, 0.000000, 0.000000, 0.000000, 3.000000, 207.300007, 1557655769.003490, 4.000000, 4.000000, 0.000000, 4.000000, 4.000000
59.000000, 0.000000, 4332.820313, 4147.692383, 4160.000000, 4248.205078, 3971.281982, 0.000000, 8150.000000, 8349.000000, 0.000000, 0.000000, 0.000000, 3.000000, 215.000004, 1557655769.011190, 4.000000, 4.000000, 0.000000, 4.000000, 4.000000
60.000000, 0.000000, 4325.127930, 4132.820313, 4092.307617, 4246.153809, 3974.358887, 0.000000, 8142.000000, 8348.000000, 0.000000, 0.000000, 0.000000, 3.000000, 222.800007, 1557655769.018990, 4.000000, 4.000000, 0.000000, 4.000000, 4.000000
61.000000, 0.000000, 4324.615234, 4170.769043, 4153.846191, 4257.948730, 3982.563965, 0.000000, 8139.000000, 8345.000000, 0.000000, 0.000000, 0.000000, 3.000000, 230.599995, 1557655769.026790, 4.000000, 4.000000, 0.000000, 4.000000, 4.000000
62.000000, 0.000000, 4321.538574, 4189.230469, 4218.974121, 4270.769043, 3980.512695, 0.000000, 8143.000000, 8353.000000, 0.000000, 0.000000, 0.000000, 3.000000, 238.499989, 1557655769.034690, 4.000000, 4.000000, 0.000000, 4.000000, 4.000000
63.000000, 0.000000, 4321.025391, 4159.487305, 4089.743408, 4253.846191, 3976.410156, 0.000000, 8142.000000, 8349.000000, 0.000000, 0.000000, 0.000000, 3.000000, 246.499989, 1557655769.042690, 4.000000, 4.000000, 0.000000, 4.000000, 4.000000
64.000000, 0.000000, 4318.974121, 4150.769043, 4122.051270, 4251.794922, 3988.717773, 500.000000, 8139.000000, 8348.000000, 0.000000, 0.000000, 0.000000, 3.000000, 254.400013, 1557655769.050590, 4.000000, 4.000000, 0.000000, 4.000000, 4.000000
65.000000, 0.000000, 4307.692383, 4148.205078, 4082.563965, 4274.871582, 3984.102539, 500.000000, 8143.000000, 8359.000000, 0.000000, 0.000000, 0.000000, 3.000000, 262.400013, 1557655769.058590, 4.000000, 4.000000, 0.000000, 4.000000, 4.000000
66.000000, 0.000000, 4287.179199, 4130.769043, 4138.461426, 4266.153809, 3962.563965, 16195.000000, 8142.000000, 8355.000000, 0.000000, 0.000000, 0.000000, 3.000000, 270.400013, 1557655769.066590, 4.000000, 4.000000, 0.000000, 4.000000, 4.000000
67.000000, 0.000000, 4271.794922, 4138.974121, 4211.794922, 4242.051270, 3968.205078, 500.000000, 8144.000000, 8357.000000, 0.000000, 0.000000, 0.000000, 3.000000, 278.200001, 1557655769.074390, 4.000000, 4.000000, 0.000000, 4.000000, 4.000000
68.000000, 0.000000, 4269.230469, 4161.025391, 4062.563965, 4231.794922, 3979.487061, 16097.000000, 8139.000000, 8369.000000, 0.000000, 0.000000, 0.000000, 3.000000, 285.999989, 1557655769.082190, 4.000000, 4.000000, 0.000000, 4.000000, 4.000000
69.000000, 0.000000, 4273.333008, 4163.076660, 4116.410156, 4232.820313, 3970.256348, 500.000000, 8138.000000, 8369.000000, 0.000000, 0.000000, 0.000000, 3.000000, 293.700001, 1557655769.089890, 4.000000, 4.000000, 0.000000, 4.000000, 4.000000
70.000000, 0.000000, 4274.871582, 4142.051270, 4128.205078, 4234.871582, 3956.923096, 109.000000, 8147.000000, 8358.000000, 0.000000, 0.000000, 0.000000, 3.000000, 301.499989, 1557655769.097690, 4.000000, 4.000000, 1.000000, 4.000000, 4.000000
71.000000, 0.000000, 4279.487305, 4112.820313, 4135.897461, 4203.589844, 3958.461426, 500.000000, 8153.000000, 8364.000000, 0.000000, 0.000000, 0.000000, 3.000000, 309.499989, 1557655769.105690, 4.000000, 4.000000, 1.000000, 4.000000, 4.000000
72.000000, 0.000000, 4302.051270, 4121.025391, 4186.666504, 4170.769043, 3972.820313, 500.000000, 8153.000000, 8367.000000, 0.000000, 0.000000, 0.000000, 3.000000, 317.499989, 1557655769.113690, 4.000000, 4.000000, 1.000000, 4.000000, 4.000000
73.000000, 0.000000, 4324.615234, 4168.205078, 4060.512695, 4178.974121, 3979.487061, 16142.000000, 8156.000000, 8369.000000, 0.000000, 0.000000, 0.000000, 3.000000, 325.499989, 1557655769.121690, 4.000000, 4.000000, 1.000000, 4.000000, 4.000000
74.000000, 0.000000, 4308.717773, 4151.281738, 4115.384277, 4172.820313, 3969.743408, 500.000000, 8149.000000, 8367.000000, 0.000000, 0.000000, 0.000000, 3.000000, 333.400013, 1557655769.129590, 4.000000, 4.000000, 1.000000, 4.000000, 4.000000
75.000000, 0.000000, 4275.897461, 4108.717773, 4142.563965, 4113.333008, 3952.307617, 16174.000000, 8150.000000, 8372.000000, 0.000000, 0.000000, 0.000000, 3.000000, 341.200001, 1557655769.137390, 4.000000, 4.000000, 1.000000, 4.000000, 4.000000
76.000000, 0.000000, 4266.153809, 4133.846191, 4156.410156, 4106.666504, 3943.076904, 500.000000, 8155.000000, 8370.000000, 0.000000, 0.000000, 0.000000, 3.000000, 348.999989, 1557655769.145190, 4.000000, 4.000000, 1.000000, 4.000000, 4.000000
77.000000, 0.000000, 4263.589844, 4140.000000, 4207.179199, 4175.384277, 3933.845947, 500.000000, 8157.000000, 8369.000000, 0.000000, 0.000000, 0.000000, 3.000000, 356.800007, 1557655769.152990, 4.000000, 4.000000, 1.000000, 4.000000, 4.000000
78.000000, 0.000000, 4251.794922, 4118.974121, 4058.461426, 4191.794922, 3935.897461, 450.000000, 8149.000000, 8374.000000, 0.000000, 0.000000, 0.000000, 3.000000, 364.700001, 1557655769.160890, 4.000000, 4.000000, 1.000000, 4.000000, 4.000000
79.000000, 0.000000, 4242.563965, 4150.769043, 4137.948730, 4160.000000, 3957.435791, 16174.000000, 8154.000000, 8370.000000, 0.000000, 0.000000, 0.000000, 3.000000, 372.499989, 1557655769.168690, 4.000000, 4.000000, 1.000000, 4.000000, 4.000000
80.000000, 0.000000, 4232.307617, 4164.615234, 4201.025391, 4151.281738, 3956.923096, 450.000000, 8157.000000, 8358.000000, 0.000000, 0.000000, 0.000000, 3.000000, 380.499989, 1557655769.176690, 4.000000, 4.000000, 1.000000, 4.000000, 4.000000
81.000000, 0.000000, 4209.743652, 4108.205078, 4144.102539, 4151.794922, 3927.179443, 450.000000, 8153.000000, 8370.000000, 0.000000, 0.000000, 0.000000, 3.000000, 388.499989, 1557655769.184690, 4.000000, 4.000000, 1.000000, 4.000000, 4.000000
82.000000, 0.000000, 4200.000000, 4100.512695, 4180.000000, 4145.641113, 3918.461426, 450.000000, 8157.000000, 8374.000000, 0.000000, 0.000000, 0.000000, 3.000000, 396.499989, 1557655769.192690, 4.000000, 4.000000, 1.000000, 4.000000, 4.000000
83.000000, 0.000000, 4210.769043, 4166.666504, 4076.410156, 4147.692383, 3937.435791, 16174.000000, 8153.000000, 8363.000000, 0.000000, 0.000000, 0.000000, 3.000000, 404.499989, 1557655769.200690, 4.000000, 4.000000, 1.000000, 4.000000, 4.000000
84.000000, 0.000000, 4210.256348, 4175.384277, 4157.948730, 4144.102539, 3943.076904, 450.000000, 8157.000000, 8356.000000, 0.000000, 0.000000, 0.000000, 3.000000, 412.200001, 1557655769.208390, 4.000000, 4.000000, 1.000000, 4.000000, 4.000000
85.000000, 0.000000, 4197.948730, 4130.769043, 4224.102539, 4135.897461, 3931.281982, 450.000000, 8151.000000, 8365.000000, 0.000000, 0.000000, 0.000000, 3.000000, 419.999989, 1557655769.216190, 4.000000, 4.000000, 1.000000, 4.000000, 4.000000
86.000000, 0.000000, 4187.179199, 4122.051270, 4133.333008, 4128.205078, 3923.589600, 450.000000, 8146.000000, 8357.000000, 0.000000, 0.000000, 0.000000, 3.000000, 427.800007, 1557655769.223990, 4.000000, 4.000000, 1.000000, 4.000000, 4.000000
87.000000, 0.000000, 4177.436035, 4148.205078, 4161.025391, 4097.948730, 3921.538330, 16174.000000, 8147.000000, 8356.000000, 0.000000, 0.000000, 0.000000, 3.000000, 435.800007, 1557655769.231990, 4.000000, 4.000000, 1.000000, 4.000000, 4.000000
88.000000, 0.000000, 4172.307617, 4149.743652, 4075.897217, 4100.512695, 3911.794678, 450.000000, 8139.000000, 8351.000000, 0.000000, 0.000000, 0.000000, 3.000000, 443.599995, 1557655769.239790, 4.000000, 4.000000, 1.000000, 4.000000, 4.000000
89.000000, 0.000000, 4165.641113, 4125.127930, 4141.538574, 4136.410156, 3899.487061, 450.000000, 8148.000000, 8346.000000, 0.000000, 0.000000, 0.000000, 3.000000, 451.400013, 1557655769.247590, 4.000000, 4.000000, 1.000000, 4.000000, 4.000000
90.000000, 0.000000, 4154.871582, 4120.512695, 4210.256348, 4128.717773, 3892.307617, 450.000000, 8145.000000, 8349.000000, 0.000000, 0.000000, 0.000000, 3.000000, 459.400013, 1557655769.255590, 4.000000, 4.000000, 1.000000, 4.000000, 4.000000
91.000000, 0.000000, 4163.589844, 4137.948730, 4106.153809, 4113.846191, 3900.512695, 16174.000000, 8140.000000, 8351.000000, 0.000000, 0.000000, 0.000000, 3.000000, 467.400013, 1557655769.263590, 4.000000, 4.000000, 1.000000, 4.000000, 4.000000
92.000000, 0.000000, 4184.102539, 4156.922852, 4146.666504, 4135.384277, 3920.512695, 450.000000, 8145.000000, 8358.000000, 0.000000, 0.000000, 0.000000, 3.000000, 475.200001, 1557655769.271390, 4.000000, 4.000000, 1.000000, 4.000000, 4.000000
93.000000, 0.000000, 4189.743652, 4153.846191, 4088.205078, 4134.358887, 3921.025635, 450.000000, 8142.000000, 8346.000000, 0.000000, 0.000000, 0.000000, 3.000000, 482.999989, 1557655769.279190, 4.000000, 4.000000, 1.000000, 4.000000, 4.000000
94.000000, 0.000000, 4191.794922, 4151.281738, 4148.717773, 4109.743652, 3917.435791, 450.000000, 8139.000000, 8344.000000, 0.000000, 0.000000, 0.000000, 3.000000, 490.700001, 1557655769.286890, 4.000000, 4.000000, 1.000000, 4.000000, 4.000000
95.000000, 0.000000, 4191.281738, 4160.512695, 4230.769043, 4112.820313, 3922.563965, 16174.000000, 8146.000000, 8363.000000, 0.000000, 0.000000, 0.000000, 3.000000, 498.600025, 1557655769.294790, 4.000000, 4.000000, 1.000000, 4.000000, 4.000000
96.000000, 0.000000, 4171.281738, 4150.769043, 4085.128174, 4124.102539, 3911.794678, 450.000000, 8144.000000, 8354.000000, 0.000000, 0.000000, 0.000000, 3.000000, 506.600025, 1557655769.302790, 4.000000, 4.000000, 1.000000, 4.000000, 4.000000
97.000000, 0.000000, 4168.205078, 4162.563965, 4110.769043, 4116.410156, 3900.512695, 450.000000, 8144.000000, 8353.000000, 0.000000, 0.000000, 0.000000, 3.000000, 514.600025, 1557655769.310790, 4.000000, 4.000000, 1.000000, 4.000000, 4.000000
98.000000, 0.000000, 4182.563965, 4173.846191, 4101.025391, 4115.384277, 3903.076904, 450.000000, 8146.000000, 8368.000000, 0.000000, 0.000000, 0.000000, 3.000000, 522.600025, 1557655769.318790, 4.000000, 4.000000, 1.000000, 4.000000, 4.000000
99.000000, 0.000000, 4165.641113, 4138.974121, 4149.230469, 4122.051270, 3894.358887, 16174.000000, 8147.000000, 8362.000000, 0.000000, 0.000000, 0.000000, 3.000000, 530.499989, 1557655769.326690, 4.000000, 4.000000, 1.000000, 4.000000, 4.000000
100.000000, 0.000000, 4144.102539, 4128.717773, 4220.512695, 4107.692383, 3876.410156, 450.000000, 8149.000000, 8356.000000, 0.000000, 0.000000, 0.000000, 3.000000, 538.299976, 1557655769.334490, 4.000000, 4.000000, 1.000000, 4.000000, 4.000000
101.000000, 0.000000, 4144.102539, 4151.794922, 4073.845947, 4101.025391, 3869.230713, 450.000000, 8147.000000, 8360.000000, 0.000000, 0.000000, 0.000000, 3.000000, 546.100025, 1557655769.342290, 4.000000, 4.000000, 1.000000, 4.000000, 4.000000
102.000000, 0.000000, 4144.615234, 4155.384277, 4127.692383, 4123.589844, 3863.589600, 450.000000, 8153.000000, 8355.000000, 0.000000, 0.000000, 0.000000, 3.000000, 553.900013, 1557655769.350090, 4.000000, 4.000000, 1.000000, 4.000000, 4.000000
103.000000, 0.000000, 4133.333008, 4158.461426, 4150.256348, 4119.487305, 3842.051270, 16174.000000, 8156.000000, 8357.000000, 0.000000, 0.000000, 0.000000, 3.000000, 561.700001, 1557655769.357890, 4.000000, 4.000000, 1.000000, 4.000000, 4.000000
104.000000, 0.000000, 4107.692383, 4134.871582, 4141.538574, 4092.307617, 3813.333252, 450.000000, 8153.000000, 8363.000000, 0.000000, 0.000000, 0.000000, 3.000000, 569.600025, 1557655769.365790, 4.000000, 4.000000, 1.000000, 4.000000, 4.000000
105.000000, 0.000000, 4106.153809, 4097.436035, 4188.717773, 4102.563965, 3814.358887, 450.000000, 8162.000000, 8354.000000, 0.000000, 0.000000, 0.000000, 3.000000, 577.600025, 1557655769.373790, 4.000000, 4.000000, 1.000000, 4.000000, 4.000000
106.000000, 0.000000, 4132.307617, 4145.641113, 4067.692139, 4128.717773, 3834.871582, 450.000000, 8160.000000, 8347.000000, 0.000000, 0.000000, 0.000000, 3.000000, 585.499989, 1557655769.381690, 4.000000, 4.000000, 1.000000, 4.000000, 4.000000
107.000000, 0.000000, 4137.436035, 4179.487305, 4137.436035, 4137.436035, 3832.820313, 16174.000000, 8166.000000, 8353.000000, 0.000000, 0.000000, 0.000000, 3.000000, 593.499989, 1557655769.389690, 4.000000, 4.000000, 1.000000, 4.000000, 4.000000
108.000000, 0.000000, 4120.000000, 4115.897461, 4177.436035, 4153.333008, 3820.000000, 450.000000, 8161.000000, 8364.000000, 0.000000, 0.000000, 0.000000, 3.000000, 601.299976, 1557655769.397490, 4.000000, 4.000000, 1.000000, 4.000000, 4.000000
109.000000, 0.000000, 4113.333008, 4108.205078, 4151.794922, 4163.589844, 3818.974365, 450.000000, 8154.000000, 8367.000000, 0.000000, 0.000000, 0.000000, 3.000000, 608.999989, 1557655769.405190, 4.000000, 4.000000, 1.000000, 4.000000, 4.000000
110.000000, 0.000000, 4126.666504, 4167.692383, 4202.563965, 4148.205078, 3821.538330, 450.000000, 8157.000000, 8352.000000, 0.000000, 0.000000, 0.000000, 3.000000, 616.799976, 1557655769.412990, 4.000000, 4.000000, 1.000000, 4.000000, 4.000000
111.000000, 0.000000, 4137.436035, 4164.615234, 4083.076904, 4127.179199, 3814.358887, 16174.000000, 8157.000000, 8364.000000, 0.000000, 0.000000, 0.000000, 3.000000, 624.799976, 1557655769.420990, 4.000000, 4.000000, 1.000000, 4.000000, 4.000000
112.000000, 0.000000, 4129.743652, 4129.743652, 4155.384277, 4135.384277, 3802.563965, 450.000000, 8162.000000, 8366.000000, 0.000000, 0.000000, 0.000000, 3.000000, 632.600025, 1557655769.428790, 4.000000, 4.000000, 1.000000, 4.000000, 4.000000
113.000000, 0.000000, 4115.384277, 4127.692383, 4207.692383, 4153.333008, 3795.384521, 450.000000, 8165.000000, 8355.000000, 0.000000, 0.000000, 0.000000, 3.000000, 640.600025, 1557655769.436790, 4.000000, 4.000000, 1.000000, 4.000000, 4.000000
114.000000, 0.000000, 4116.410156, 4147.692383, 4127.692383, 4140.512695, 3788.717773, 450.000000, 8158.000000, 8350.000000, 0.000000, 0.000000, 0.000000, 3.000000, 648.499989, 1557655769.444690, 4.000000, 4.000000, 1.000000, 4.000000, 4.000000
115.000000, 0.000000, 4122.563965, 4158.461426, 4164.102539, 4127.692383, 3779.487061, 16174.000000, 8161.000000, 8349.000000, 0.000000, 0.000000, 0.000000, 3.000000, 656.299976, 1557655769.452490, 4.000000, 4.000000, 1.000000, 4.000000, 4.000000
116.000000, 0.000000, 4116.922852, 4139.487305, 4077.435791, 4132.307617, 3775.384521, 450.000000, 8158.000000, 8344.000000, 0.000000, 0.000000, 0.000000, 3.000000, 664.100025, 1557655769.460290, 4.000000, 4.000000, 1.000000, 4.000000, 4.000000
117.000000, 0.000000, 4118.974121, 4132.820313, 4165.641113, 4150.769043, 3782.051270, 450.000000, 8164.000000, 8351.000000, 0.000000, 0.000000, 0.000000, 3.000000, 671.900013, 1557655769.468090, 4.000000, 4.000000, 1.000000, 4.000000, 4.000000
118.000000, 0.000000, 4125.127930, 4160.512695, 4236.410156, 4171.281738, 3775.384521, 450.000000, 8155.000000, 8351.000000, 0.000000, 0.000000, 0.000000, 3.000000, 679.700001, 1557655769.475890, 4.000000, 4.000000, 1.000000, 4.000000, 4.000000
119.000000, 0.000000, 4118.461426, 4170.256348, 4108.205078, 4160.000000, 3750.256348, 16174.000000, 8159.000000, 8345.000000, 0.000000, 0.000000, 0.000000, 3.000000, 687.499989, 1557655769.483690, 4.000000, 4.000000, 1.000000, 4.000000, 4.000000
120.000000, 0.000000, 4118.974121, 4164.102539, 4134.871582, 4131.794922, 3743.076904, 450.000000, 8158.000000, 8346.000000, 0.000000, 0.000000, 0.000000, 3.000000, 695.499989, 1557655769.491690, 4.000000, 4.000000, 1.000000, 4.000000, 4.000000
121.000000, 0.000000, 4127.179199, 4181.025391, 4084.615234, 4135.897461, 3750.769043, 450.000000, 8151.000000, 8357.000000, 0.000000, 0.000000, 0.000000, 3.000000, 703.499989, 1557655769.499690, 4.000000, 4.000000, 1.000000, 4.000000, 4.000000
122.000000, 0.000000, 4116.410156, 4176.922852, 4147.179199, 4153.846191, 3744.615234, 450.000000, 8154.000000, 8360.000000, 0.000000, 0.000000, 0.000000, 3.000000, 711.499989, 1557655769.507690, 4.000000, 4.000000, 1.000000, 4.000000, 4.000000
123.000000, 0.000000, 4103.076660, 4161.025391, 4217.436035, 4154.358887, 3732.820313, 16174.000000, 8152.000000, 8354.000000, 0.000000, 0.000000, 0.000000, 3.000000, 719.499989, 1557655769.515690, 4.000000, 4.000000, 1.000000, 4.000000, 4.000000
124.000000, 0.000000, 4108.717773, 4163.076660, 4089.743408, 4151.281738, 3728.205078, 450.000000, 8151.000000, 8355.000000, 0.000000, 0.000000, 0.000000, 3.000000, 727.400013, 1557655769.523590, 4.000000, 4.000000, 1.000000, 4.000000, 4.000000
125.000000, 0.000000, 4107.692383, 4155.384277, 4129.743652, 4145.127930, 3713.333252, 450.000000, 8146.000000, 8366.000000, 0.000000, 0.000000, 0.000000, 3.000000, 735.200001, 1557655769.531390, 4.000000, 4.000000, 1.000000, 4.000000, 4.000000
126.000000, 0.000000, 4102.563965, 4165.127930, 4104.615234, 4147.179199, 3705.128174, 450.000000, 8149.000000, 8357.000000, 0.000000, 0.000000, 0.000000, 3.000000, 742.999989, 1557655769.539190, 4.000000, 4.000000, 1.000000, 4.000000, 4.000000
127.000000, 0.000000, 4121.025391, 4208.205078, 4143.076660, 4165.127930, 3730.769043, 16174.000000, 8154.000000, 8363.000000, 0.000000, 0.000000, 0.000000, 3.000000, 750.900013, 1557655769.547090, 4.000000, 4.000000, 1.000000, 4.000000, 4.000000
128.000000, 0.000000, 4144.102539, 4215.897461, 4203.076660, 4178.974121, 3740.000000, 500.000000, 8150.000000, 8366.000000, 0.000000, 0.000000, 0.000000, 3.000000, 758.700001, 1557655769.554890, 4.000000, 4.000000, 1.000000, 4.000000, 4.000000
0.000000, 0.000000, 4139.487305, 4163.589844, 4061.025635, 4187.179199, 3713.845947, 500.000000, 8150.000000, 8363.000000, 0.000000, 0.000000, 0.000000, 3.000000, 766.499989, 1557655769.562690, 4.000000, 4.000000, 1.000000, 4.000000, 4.000000
1.000000, 0.000000, 4126.666504, 4157.948730, 4115.384277, 4183.589844, 3709.743408, 500.000000, 8148.000000, 8363.000000, 0.000000, 0.000000, 0.000000, 3.000000, 774.499989, 1557655769.570690, 4.000000, 4.000000, 1.000000, 4.000000, 4.000000
2.000000, 0.000000, 4133.333008, 4206.666504, 4120.512695, 4164.102539, 3708.717773, 16203.000000, 8151.000000, 8359.000000, 0.000000, 0.000000, 0.000000, 3.000000, 782.499989, 1557655769.578690, 4.000000, 4.000000, 1.000000, 4.000000, 4.000000
3.000000, 0.000000, 4131.794922, 4204.615234, 4134.358887, 4158.461426, 3674.358887, 500.000000, 8149.000000, 8350.000000, 0.000000, 0.000000, 0.000000, 3.000000, 790.499989, 1557655769.586690, 4.000000, 4.000000, 1.000000, 4.000000, 4.000000
4.000000, 0.000000, 4115.897461, 4182.563965, 4203.589844, 4185.641113, 3653.333252, 16104.000000, 8151.000000, 8349.000000, 0.000000, 0.000000, 0.000000, 3.000000, 798.299976, 1557655769.594490, 4.000000, 4.000000, 1.000000, 4.000000, 4.000000
5.000000, 0.000000, 4117.436035, 4204.102539, 4069.230713, 4190.256348, 3674.871826, 500.000000, 8147.000000, 8356.000000, 0.000000, 0.000000, 0.000000, 3.000000, 805.999989, 1557655769.602190, 4.000000, 4.000000, 1.000000, 4.000000, 4.000000
6.000000, 0.000000, 4137.948730, 4211.794922, 4127.179199, 4183.589844, 3704.615234, 49.000000, 8150.000000, 8345.000000, 0.000000, 0.000000, 0.000000, 3.000000, 813.799976, 1557655769.609990, 4.000000, 4.000000, 1.000000, 4.000000, 4.000000
7.000000, 0.000000, 4146.153809, 4190.769043, 4165.127930, 4206.666504, 3703.076904, 500.000000, 8148.000000, 8345.000000, 0.000000, 0.000000, 0.000000, 3.000000, 821.600025, 1557655769.617790, 4.000000, 4.000000, 1.000000, 4.000000, 4.000000
8.000000, 0.000000, 4132.820313, 4195.384277, 4147.179199, 4220.512695, 3684.615234, 500.000000, 8154.000000, 8341.000000, 0.000000, 0.000000, 0.000000, 3.000000, 829.499989, 1557655769.625690, 4.000000, 4.000000, 1.000000, 4.000000, 4.000000
9.000000, 0.000000, 4126.666504, 4205.127930, 4186.666504, 4200.000000, 3684.102539, 16135.000000, 8155.000000, 8348.000000, 0.000000, 0.000000, 0.000000, 3.000000, 837.499989, 1557655769.633690, 4.000000, 4.000000, 1.000000, 4.000000, 4.000000
10.000000, 0.000000, 4132.820313, 4209.743652, 4062.563965, 4169.230469, 3680.000000, 500.000000, 8148.000000, 8348.000000, 0.000000, 0.000000, 0.000000, 3.000000, 845.400013, 1557655769.641590, 4.000000, 4.000000, 1.000000, 4.000000, 4.000000
11.000000, 0.000000, 4137.436035, 4217.436035, 4150.256348, 4180.000000, 3667.692139, 16179.000000, 8154.000000, 8337.000000, 0.000000, 0.000000, 0.000000, 3.000000, 853.400013, 1557655769.649590, 4.000000, 4.000000, 1.000000, 4.000000, 4.000000
12.000000, 0.000000, 4148.205078, 4216.410156, 4210.256348, 4233.846191, 3682.051270, 500.000000, 8151.000000, 8348.000000, 0.000000, 0.000000, 0.000000, 3.000000, 861.400013, 1557655769.657590, 4.000000, 4.000000, 1.000000, 4.000000, 4.000000
