title:rishi flat frnd happy2, recorded:12.05.19 15.45.11, timestamp started:2019-05-12T15:45:11.381389+05:30, sampling:128, subject:, labels:COUNTER INTERPOLATED AF3 T7 Pz T8 AF4 RAW_CQ GYROX GYROY MARKER MARKER_HARDWARE SYNC TIME_STAMP_s TIME_STAMP_ms TimeStamp CQ_AF3 CQ_T7 CQ_Pz CQ_T8 CQ_AF4, chan:20, samples:4340, units:emotiv
27.000000, 0.000000, 4512.820313, 4171.794922, 4000.512695, 3848.717773, 3315.384521, 0.000000, 8150.000000, 8354.000000, 1.000000, 5.000000, 0.000000, 0.000000, 0.000000, 1557656111.381390, 4.000000, 4.000000, 2.000000, 4.000000, 4.000000
28.000000, 0.000000, 4507.179199, 4180.000000, 4019.487061, 3829.230713, 3306.666504, 0.000000, 8156.000000, 8344.000000, 0.000000, 0.000000, 0.000000, 0.000000, 8.000000, 1557656111.389390, 4.000000, 4.000000, 2.000000, 4.000000, 4.000000
29.000000, 0.000000, 4510.256348, 4201.025391, 3998.461426, 3832.307617, 3304.102539, 0.000000, 8157.000000, 8339.000000, 0.000000, 0.000000, 0.000000, 0.000000, 16.000000, 1557656111.397390, 4.000000, 4.000000, 2.000000, 4.000000, 4.000000
30.000000, 0.000000, 4502.051270, 4194.358887, 4000.512695, 3828.205078, 3326.153809, 0.000000, 8156.000000, 8344.000000, 0.000000, 0.000000, 0.000000, 0.000000, 23.900024, 1557656111.405290, 4.000000, 4.000000, 2.000000, 4.000000, 4.000000
31.000000, 0.000000, 4493.846191, 4191.794922, 4019.487061, 3816.923096, 3357.435791, 0.000000, 8158.000000, 8340.000000, 0.000000, 0.000000, 0.000000, 0.000000, 31.700012, 1557656111.413090, 4.000000, 4.000000, 2.000000, 4.000000, 4.000000
32.000000, 0.000000, 4503.076660, 4194.871582, 3981.538330, 3817.948730, 3361.538330, 0.000000, 8156.000000, 8337.000000, 0.000000, 0.000000, 0.000000, 0.000000, 39.500000, 1557656111.420890, 4.000000, 4.000000, 2.000000, 4.000000, 4.000000
33.000000, 0.000000, 4510.769043, 4199.487305, 4005.128174, 3830.769043, 3357.948730, 0.000000, 8155.000000, 8343.000000, 0.000000, 0.000000, 0.000000, 0.000000, 47.299988, 1557656111.428690, 4.000000, 4.000000, 2.000000, 4.000000, 4.000000
34.000000, 0.000000, 4508.717773, 4208.717773, 4001.025635, 3833.845947, 3377.435791, 0.000000, 8152.000000, 8343.000000, 0.000000, 0.000000, 0.000000, 0.000000, 55.099976, 1557656111.436490, 4.000000, 4.000000, 2.000000, 4.000000, 4.000000
35.000000, 0.000000, 4520.000000, 4202.563965, 3993.845947, 3827.179443, 3399.487061, 0.000000, 8146.000000, 8345.000000, 0.000000, 0.000000, 0.000000, 0.000000, 62.799988, 1557656111.444190, 4.000000, 4.000000, 2.000000, 4.000000, 4.000000
36.000000, 0.000000, 4532.820313, 4188.205078, 4016.923096, 3831.794678, 3411.281982, 0.000000, 8151.000000, 8349.000000, 0.000000, 0.000000, 0.000000, 0.000000, 70.799988, 1557656111.452190, 4.000000, 4.000000, 2.000000, 4.000000, 4.000000
37.000000, 0.000000, 4523.589844, 4194.358887, 3986.666504, 3822.563965, 3408.717773, 0.000000, 8149.000000, 8339.000000, 0.000000, 0.000000, 0.000000, 0.000000, 78.799988, 1557656111.460190, 4.000000, 4.000000, 2.000000, 4.000000, 4.000000
38.000000, 0.000000, 4518.974121, 4199.487305, 4003.589600, 3799.487061, 3392.820313, 0.000000, 8143.000000, 8336.000000, 0.000000, 0.000000, 0.000000, 0.000000, 86.799988, 1557656111.468190, 4.000000, 4.000000, 2.000000, 4.000000, 4.000000
39.000000, 0.000000, 4530.769043, 4188.205078, 4000.512695, 3805.128174, 3385.640869, 0.000000, 8141.000000, 8350.000000, 0.000000, 0.000000, 0.000000, 0.000000, 94.599976, 1557656111.475990, 4.000000, 4.000000, 2.000000, 4.000000, 4.000000
40.000000, 0.000000, 4531.794922, 4193.846191, 3991.794678, 3832.307617, 3399.487061, 0.000000, 8151.000000, 8352.000000, 0.000000, 0.000000, 0.000000, 0.000000, 102.299988, 1557656111.483690, 4.000000, 4.000000, 2.000000, 4.000000, 4.000000
41.000000, 0.000000, 4520.000000, 4210.256348, 4021.538330, 3850.256348, 3415.384521, 0.000000, 8154.000000, 8341.000000, 0.000000, 0.000000, 0.000000, 0.000000, 110.099976, 1557656111.491490, 4.000000, 4.000000, 2.000000, 4.000000, 4.000000
42.000000, 0.000000, 4511.281738, 4197.436035, 3993.333252, 3858.461426, 3413.333252, 0.000000, 8153.000000, 8344.000000, 0.000000, 0.000000, 0.000000, 0.000000, 117.900024, 1557656111.499290, 4.000000, 4.000000, 2.000000, 4.000000, 4.000000
43.000000, 0.000000, 4513.333008, 4179.487305, 4005.128174, 3865.640869, 3401.025635, 0.000000, 8149.000000, 8356.000000, 0.000000, 0.000000, 0.000000, 0.000000, 125.900024, 1557656111.507290, 4.000000, 4.000000, 2.000000, 4.000000, 4.000000
44.000000, 0.000000, 4511.794922, 4183.076660, 4003.589600, 3860.512695, 3397.948730, 0.000000, 8148.000000, 8356.000000, 0.000000, 0.000000, 0.000000, 0.000000, 133.900024, 1557656111.515290, 4.000000, 4.000000, 2.000000, 4.000000, 4.000000
45.000000, 0.000000, 4507.692383, 4201.025391, 3991.281982, 3851.794678, 3421.538330, 0.000000, 8143.000000, 8349.000000, 0.000000, 0.000000, 0.000000, 0.000000, 141.799988, 1557656111.523190, 4.000000, 4.000000, 2.000000, 4.000000, 4.000000
46.000000, 0.000000, 4516.922852, 4214.358887, 4028.717773, 3859.487061, 3456.410156, 0.000000, 8149.000000, 8352.000000, 0.000000, 0.000000, 0.000000, 0.000000, 149.799988, 1557656111.531190, 4.000000, 4.000000, 2.000000, 4.000000, 4.000000
47.000000, 0.000000, 4521.025391, 4190.769043, 4002.563965, 3866.153809, 3470.256348, 0.000000, 8146.000000, 8349.000000, 0.000000, 0.000000, 0.000000, 0.000000, 157.599976, 1557656111.538990, 4.000000, 4.000000, 2.000000, 4.000000, 4.000000
48.000000, 0.000000, 4523.589844, 4172.307617, 4008.717773, 3862.563965, 3489.743408, 0.000000, 8149.000000, 8343.000000, 0.000000, 0.000000, 0.000000, 0.000000, 165.400024, 1557656111.546790, 4.000000, 4.000000, 2.000000, 4.000000, 4.000000
49.000000, 0.000000, 4528.717773, 4188.205078, 4016.923096, 3844.102539, 3513.845947, 0.000000, 8155.000000, 8348.000000, 0.000000, 0.000000, 0.000000, 0.000000, 173.200012, 1557656111.554590, 4.000000, 4.000000, 2.000000, 4.000000, 4.000000
50.000000, 0.000000, 4508.717773, 4187.179199, 3986.666504, 3808.717773, 3503.589600, 0.000000, 8153.000000, 8348.000000, 0.000000, 0.000000, 0.000000, 0.000000, 180.900024, 1557656111.562290, 4.000000, 4.000000, 2.000000, 4.000000, 4.000000
51.000000, 0.000000, 4491.281738, 4172.307617, 4005.128174, 3787.692139, 3486.666504, 0.000000, 8158.000000, 8342.000000, 0.000000, 0.000000, 0.000000, 0.000000, 188.900024, 1557656111.570290, 4.000000, 4.000000, 2.000000, 4.000000, 4.000000
52.000000, 0.000000, 4502.563965, 4185.641113, 3989.230713, 3783.076904, 3492.307617, 0.000000, 8152.000000, 8354.000000, 0.000000, 0.000000, 0.000000, 0.000000, 196.900024, 1557656111.578290, 4.000000, 4.000000, 2.000000, 4.000000, 4.000000
53.000000, 0.000000, 4493.846191, 4191.281738, 3995.384521, 3773.333252, 3495.384521, 0.000000, 8157.000000, 8352.000000, 0.000000, 0.000000, 0.000000, 0.000000, 204.900024, 1557656111.586290, 4.000000, 4.000000, 2.000000, 4.000000, 4.000000
54.000000, 0.000000, 4454.871582, 4172.307617, 3997.435791, 3745.640869, 3475.384521, 0.000000, 8160.000000, 8346.000000, 0.000000, 0.000000, 0.000000, 0.000000, 212.900024, 1557656111.594290, 4.000000, 4.000000, 2.000000, 4.000000, 4.000000
55.000000, 0.000000, 4441.538574, 4157.948730, 3980.512695, 3728.717773, 3464.615234, 0.000000, 8155.000000, 8340.000000, 0.000000, 0.000000, 0.000000, 0.000000, 220.599976, 1557656111.601990, 4.000000, 4.000000, 2.000000, 4.000000, 4.000000
56.000000, 0.000000, 4468.717773, 4162.051270, 4028.205078, 3765.128174, 3495.384521, 0.000000, 8160.000000, 8348.000000, 0.000000, 0.000000, 0.000000, 0.000000, 228.400024, 1557656111.609790, 4.000000, 4.000000, 2.000000, 4.000000, 4.000000
57.000000, 0.000000, 4502.563965, 4186.153809, 4016.410156, 3809.230713, 3531.281982, 0.000000, 8160.000000, 8351.000000, 0.000000, 0.000000, 0.000000, 0.000000, 236.200012, 1557656111.617590, 4.000000, 4.000000, 2.000000, 4.000000, 4.000000
58.000000, 0.000000, 4511.281738, 4195.384277, 4013.333252, 3806.666504, 3543.589600, 0.000000, 8159.000000, 8339.000000, 0.000000, 0.000000, 0.000000, 0.000000, 244.000000, 1557656111.625390, 4.000000, 4.000000, 2.000000, 4.000000, 4.000000
59.000000, 0.000000, 4495.897461, 4185.127930, 4028.717773, 3793.845947, 3544.615234, 0.000000, 8157.000000, 8346.000000, 0.000000, 0.000000, 0.000000, 0.000000, 252.000000, 1557656111.633390, 4.000000, 4.000000, 2.000000, 4.000000, 4.000000
60.000000, 0.000000, 4484.102539, 4188.205078, 4000.512695, 3804.102539, 3548.205078, 0.000000, 8158.000000, 8344.000000, 0.000000, 0.000000, 0.000000, 0.000000, 259.799988, 1557656111.641190, 4.000000, 4.000000, 2.000000, 4.000000, 4.000000
61.000000, 0.000000, 4491.794922, 4188.717773, 4027.179443, 3804.102539, 3545.640869, 0.000000, 8153.000000, 8353.000000, 0.000000, 0.000000, 0.000000, 0.000000, 267.799988, 1557656111.649190, 4.000000, 4.000000, 2.000000, 4.000000, 4.000000
62.000000, 0.000000, 4503.076660, 4164.102539, 4014.871582, 3787.179443, 3543.076904, 0.000000, 8148.000000, 8349.000000, 0.000000, 0.000000, 0.000000, 0.000000, 275.799988, 1557656111.657190, 4.000000, 4.000000, 2.000000, 4.000000, 4.000000
63.000000, 0.000000, 4503.076660, 4163.589844, 4007.179443, 3793.333252, 3556.923096, 0.000000, 8155.000000, 8347.000000, 0.000000, 0.000000, 0.000000, 0.000000, 283.799988, 1557656111.665190, 4.000000, 4.000000, 2.000000, 4.000000, 4.000000
64.000000, 0.000000, 4502.051270, 4190.256348, 4022.563965, 3812.820313, 3568.717773, 500.000000, 8160.000000, 8334.000000, 0.000000, 0.000000, 0.000000, 0.000000, 291.599976, 1557656111.672990, 4.000000, 4.000000, 2.000000, 4.000000, 4.000000
65.000000, 0.000000, 4509.743652, 4185.127930, 3985.640869, 3817.435791, 3573.333252, 500.000000, 8155.000000, 8339.000000, 0.000000, 0.000000, 0.000000, 0.000000, 299.299988, 1557656111.680690, 4.000000, 4.000000, 2.000000, 4.000000, 4.000000
66.000000, 0.000000, 4525.127930, 4178.974121, 4004.102539, 3828.717773, 3590.256348, 16179.000000, 8156.000000, 8337.000000, 0.000000, 0.000000, 0.000000, 0.000000, 307.099976, 1557656111.688490, 4.000000, 4.000000, 2.000000, 4.000000, 4.000000
67.000000, 0.000000, 4537.948730, 4200.512695, 4003.076904, 3848.205078, 3598.974365, 500.000000, 8159.000000, 8329.000000, 0.000000, 0.000000, 0.000000, 0.000000, 314.900024, 1557656111.696290, 4.000000, 4.000000, 2.000000, 4.000000, 4.000000
68.000000, 0.000000, 4532.307617, 4198.974121, 3996.923096, 3844.102539, 3593.845947, 16088.000000, 8159.000000, 8331.000000, 0.000000, 0.000000, 0.000000, 0.000000, 322.900024, 1557656111.704290, 4.000000, 4.000000, 2.000000, 4.000000, 4.000000
69.000000, 0.000000, 4517.948730, 4168.717773, 4018.461426, 3831.281982, 3595.897461, 500.000000, 8159.000000, 8344.000000, 0.000000, 0.000000, 0.000000, 0.000000, 330.900024, 1557656111.712290, 4.000000, 4.000000, 2.000000, 4.000000, 4.000000
70.000000, 0.000000, 4521.538574, 4162.563965, 3988.205078, 3832.307617, 3597.435791, 246.000000, 8154.000000, 8345.000000, 0.000000, 0.000000, 0.000000, 0.000000, 338.900024, 1557656111.720290, 4.000000, 4.000000, 2.000000, 4.000000, 4.000000
71.000000, 0.000000, 4538.461426, 4179.487305, 4002.563965, 3837.435791, 3589.743408, 500.000000, 8157.000000, 8334.000000, 0.000000, 0.000000, 0.000000, 0.000000, 346.799988, 1557656111.728190, 4.000000, 4.000000, 2.000000, 4.000000, 4.000000
72.000000, 0.000000, 4539.487305, 4182.563965, 3995.384521, 3842.051270, 3593.845947, 500.000000, 8161.000000, 8337.000000, 0.000000, 0.000000, 0.000000, 0.000000, 354.799988, 1557656111.736190, 4.000000, 4.000000, 2.000000, 4.000000, 4.000000
73.000000, 0.000000, 4537.435547, 4177.948730, 3987.179443, 3858.974365, 3614.871826, 16148.000000, 8158.000000, 8347.000000, 0.000000, 0.000000, 0.000000, 0.000000, 362.599976, 1557656111.743990, 4.000000, 4.000000, 2.000000, 4.000000, 4.000000
74.000000, 0.000000, 4545.641113, 4182.051270, 4017.435791, 3866.153809, 3623.589600, 500.000000, 8156.000000, 8344.000000, 0.000000, 0.000000, 0.000000, 0.000000, 370.400024, 1557656111.751790, 4.000000, 4.000000, 2.000000, 4.000000, 4.000000
75.000000, 0.000000, 4537.948730, 4182.051270, 3984.615234, 3856.410156, 3611.281982, 16178.000000, 8155.000000, 8345.000000, 0.000000, 0.000000, 0.000000, 0.000000, 378.200012, 1557656111.759590, 4.000000, 4.000000, 2.000000, 4.000000, 4.000000
76.000000, 0.000000, 4525.641113, 4176.922852, 4006.153809, 3857.948730, 3604.615234, 500.000000, 8154.000000, 8352.000000, 0.000000, 0.000000, 0.000000, 0.000000, 386.000000, 1557656111.767390, 4.000000, 4.000000, 2.000000, 4.000000, 4.000000
77.000000, 0.000000, 4530.769043, 4174.871582, 4029.743408, 3857.435791, 3619.487061, 500.000000, 8153.000000, 8351.000000, 0.000000, 0.000000, 0.000000, 0.000000, 393.900000, 1557656111.775290, 4.000000, 4.000000, 2.000000, 4.000000, 4.000000
78.000000, 0.000000, 4536.922852, 4173.846191, 4014.871582, 3857.435791, 3633.333252, 450.000000, 8145.000000, 8353.000000, 0.000000, 0.000000, 0.000000, 0.000000, 401.900000, 1557656111.783290, 4.000000, 4.000000, 2.000000, 4.000000, 4.000000
79.000000, 0.000000, 4527.692383, 4171.281738, 4028.717773, 3865.640869, 3621.025635, 16178.000000, 8147.000000, 8361.000000, 0.000000, 0.000000, 0.000000, 0.000000, 409.900000, 1557656111.791290, 4.000000, 4.000000, 2.000000, 4.000000, 4.000000
80.000000, 0.000000, 4505.641113, 4165.127930, 3997.435791, 3856.410156, 3594.358887, 450.000000, 8150.000000, 8351.000000, 0.000000, 0.000000, 0.000000, 0.000000, 417.900002, 1557656111.799290, 4.000000, 4.000000, 2.000000, 4.000000, 4.000000
81.000000, 0.000000, 4494.871582, 4155.384277, 4010.256348, 3848.717773, 3592.820313, 450.000000, 8149.000000, 8353.000000, 0.000000, 0.000000, 0.000000, 0.000000, 425.599998, 1557656111.806990, 4.000000, 4.000000, 2.000000, 4.000000, 4.000000
82.000000, 0.000000, 4500.000000, 4145.127930, 4016.410156, 3851.281982, 3612.307617, 450.000000, 8150.000000, 8367.000000, 0.000000, 0.000000, 0.000000, 0.000000, 433.400002, 1557656111.814790, 4.000000, 4.000000, 2.000000, 4.000000, 4.000000
83.000000, 0.000000, 4495.897461, 4154.871582, 3989.743408, 3850.256348, 3620.000000, 16178.000000, 8156.000000, 8366.000000, 0.000000, 0.000000, 0.000000, 0.000000, 441.200001, 1557656111.822590, 4.000000, 4.000000, 2.000000, 4.000000, 4.000000
84.000000, 0.000000, 4481.538574, 4178.461426, 4025.640869, 3857.435791, 3626.153809, 450.000000, 8154.000000, 8355.000000, 0.000000, 0.000000, 0.000000, 0.000000, 449.000000, 1557656111.830390, 4.000000, 4.000000, 2.000000, 4.000000, 4.000000
85.000000, 0.000000, 4477.948730, 4176.922852, 4006.153809, 3862.051270, 3631.794678, 450.000000, 8163.000000, 8355.000000, 0.000000, 0.000000, 0.000000, 0.000000, 456.900002, 1557656111.838290, 4.000000, 4.000000, 2.000000, 4.000000, 4.000000
86.000000, 0.000000, 4478.461426, 4158.461426, 3986.666504, 3846.666504, 3615.897461, 450.000000, 8162.000000, 8358.000000, 0.000000, 0.000000, 0.000000, 0.000000, 464.800003, 1557656111.846190, 4.000000, 4.000000, 2.000000, 4.000000, 4.000000
87.000000, 0.000000, 4470.769043, 4167.692383, 3993.333252, 3831.281982, 3601.538330, 16178.000000, 8166.000000, 8356.000000, 0.000000, 0.000000, 0.000000, 0.000000, 472.800003, 1557656111.854190, 4.000000, 4.000000, 2.000000, 4.000000, 4.000000
88.000000, 0.000000, 4469.743652, 4192.820313, 3986.666504, 3835.384521, 3606.666504, 450.000000, 8164.000000, 8351.000000, 0.000000, 0.000000, 0.000000, 0.000000, 480.800003, 1557656111.862190, 4.000000, 4.000000, 2.000000, 4.000000, 4.000000
89.000000, 0.000000, 4489.230469, 4187.179199, 4018.974365, 3845.128174, 3623.076904, 450.000000, 8163.000000, 8353.000000, 0.000000, 0.000000, 0.000000, 0.000000, 488.599998, 1557656111.869990, 4.000000, 4.000000, 2.000000, 4.000000, 4.000000
90.000000, 0.000000, 4500.512695, 4175.897461, 3992.307617, 3831.281982, 3637.948730, 450.000000, 8170.000000, 8346.000000, 0.000000, 0.000000, 0.000000, 0.000000, 496.400002, 1557656111.877790, 4.000000, 4.000000, 2.000000, 4.000000, 4.000000
91.000000, 0.000000, 4488.717773, 4194.358887, 3990.769043, 3812.307617, 3636.410156, 16178.000000, 8163.000000, 8340.000000, 0.000000, 0.000000, 0.000000, 0.000000, 504.099998, 1557656111.885490, 4.000000, 4.000000, 2.000000, 4.000000, 4.000000
92.000000, 0.000000, 4490.769043, 4200.512695, 4015.384521, 3820.000000, 3620.000000, 450.000000, 8166.000000, 8349.000000, 0.000000, 0.000000, 0.000000, 0.000000, 512.000000, 1557656111.893390, 4.000000, 4.000000, 2.000000, 4.000000, 4.000000
93.000000, 0.000000, 4500.000000, 4173.846191, 3986.153809, 3837.435791, 3598.461426, 450.000000, 8167.000000, 8346.000000, 0.000000, 0.000000, 0.000000, 0.000000, 520.000000, 1557656111.901390, 4.000000, 4.000000, 2.000000, 4.000000, 4.000000
94.000000, 0.000000, 4490.769043, 4172.307617, 4013.333252, 3842.563965, 3585.640869, 450.000000, 8171.000000, 8337.000000, 0.000000, 0.000000, 0.000000, 0.000000, 527.899994, 1557656111.909290, 4.000000, 4.000000, 2.000000, 4.000000, 4.000000
95.000000, 0.000000, 4476.922852, 4192.307617, 4005.640869, 3846.666504, 3589.230713, 16178.000000, 8170.000000, 8344.000000, 0.000000, 0.000000, 0.000000, 0.000000, 535.899994, 1557656111.917290, 4.000000, 4.000000, 2.000000, 4.000000, 4.000000
96.000000, 0.000000, 4472.820313, 4181.025391, 3993.333252, 3856.923096, 3598.974365, 450.000000, 8170.000000, 8345.000000, 0.000000, 0.000000, 0.000000, 0.000000, 543.800003, 1557656111.925190, 4.000000, 4.000000, 2.000000, 4.000000, 4.000000
97.000000, 0.000000, 4468.205078, 4166.666504, 4012.307617, 3857.948730, 3590.769043, 450.000000, 8172.000000, 8333.000000, 0.000000, 0.000000, 0.000000, 0.000000, 551.800003, 1557656111.933190, 4.000000, 4.000000, 2.000000, 4.000000, 4.000000
98.000000, 0.000000, 4464.615234, 4175.384277, 3978.974365, 3853.333252, 3569.230713, 450.000000, 8185.000000, 8336.000000, 0.000000, 0.000000, 0.000000, 0.000000, 559.600006, 1557656111.940990, 4.000000, 4.000000, 2.000000, 4.000000, 4.000000
99.000000, 0.000000, 4468.717773, 4178.974121, 4003.076904, 3860.512695, 3569.743408, 16178.000000, 8182.000000, 8343.000000, 0.000000, 0.000000, 0.000000, 0.000000, 567.399994, 1557656111.948790, 4.000000, 4.000000, 2.000000, 4.000000, 4.000000
100.000000, 0.000000, 4468.205078, 4175.384277, 4007.692139, 3866.666504, 3573.845947, 450.000000, 8169.000000, 8336.000000, 0.000000, 0.000000, 0.000000, 0.000000, 575.199997, 1557656111.956590, 4.000000, 4.000000, 2.000000, 4.000000, 4.000000
101.000000, 0.000000, 4474.358887, 4181.025391, 3994.871582, 3882.563965, 3575.384521, 450.000000, 8177.000000, 8336.000000, 0.000000, 0.000000, 0.000000, 0.000000, 582.899994, 1557656111.964290, 4.000000, 4.000000, 2.000000, 4.000000, 4.000000
102.000000, 0.000000, 4485.641113, 4184.615234, 4015.384521, 3898.974365, 3582.563965, 450.000000, 8174.000000, 8342.000000, 0.000000, 0.000000, 0.000000, 0.000000, 590.899994, 1557656111.972290, 4.000000, 4.000000, 2.000000, 4.000000, 4.000000
103.000000, 0.000000, 4483.076660, 4181.538574, 3983.076904, 3890.256348, 3583.076904, 16178.000000, 8178.000000, 8340.000000, 0.000000, 0.000000, 0.000000, 0.000000, 598.899994, 1557656111.980290, 4.000000, 4.000000, 2.000000, 4.000000, 4.000000
104.000000, 0.000000, 4477.435547, 4185.641113, 3994.358887, 3889.230713, 3583.076904, 450.000000, 8174.000000, 8347.000000, 0.000000, 0.000000, 0.000000, 0.000000, 606.899994, 1557656111.988290, 4.000000, 4.000000, 2.000000, 4.000000, 4.000000
105.000000, 0.000000, 4482.563965, 4188.717773, 3993.845947, 3916.410156, 3582.051270, 450.000000, 8169.000000, 8354.000000, 0.000000, 0.000000, 0.000000, 0.000000, 614.899994, 1557656111.996290, 4.000000, 4.000000, 2.000000, 4.000000, 4.000000
106.000000, 0.000000, 4487.692383, 4189.743652, 3978.461426, 3925.640869, 3573.845947, 450.000000, 8173.000000, 8353.000000, 0.000000, 0.000000, 0.000000, 0.000000, 622.600006, 1557656112.003990, 4.000000, 4.000000, 2.000000, 4.000000, 4.000000
107.000000, 0.000000, 4483.076660, 4196.410156, 4004.615234, 3903.589600, 3561.025635, 16178.000000, 8177.000000, 8353.000000, 0.000000, 0.000000, 0.000000, 0.000000, 630.399994, 1557656112.011790, 4.000000, 4.000000, 2.000000, 4.000000, 4.000000
108.000000, 0.000000, 4480.000000, 4191.281738, 3976.923096, 3897.435791, 3545.640869, 450.000000, 8172.000000, 8355.000000, 0.000000, 0.000000, 0.000000, 0.000000, 638.300003, 1557656112.019690, 4.000000, 4.000000, 2.000000, 4.000000, 4.000000
109.000000, 0.000000, 4491.281738, 4184.102539, 3986.153809, 3920.000000, 3541.025635, 450.000000, 8167.000000, 8360.000000, 0.000000, 0.000000, 0.000000, 0.000000, 646.100006, 1557656112.027490, 4.000000, 4.000000, 2.000000, 4.000000, 4.000000
110.000000, 0.000000, 4501.538574, 4195.384277, 3993.845947, 3939.487061, 3543.589600, 450.000000, 8170.000000, 8346.000000, 0.000000, 0.000000, 0.000000, 0.000000, 653.899994, 1557656112.035290, 4.000000, 4.000000, 2.000000, 4.000000, 4.000000
111.000000, 0.000000, 4490.256348, 4200.512695, 3968.717773, 3931.794678, 3532.820313, 16178.000000, 8168.000000, 8346.000000, 0.000000, 0.000000, 0.000000, 0.000000, 661.799988, 1557656112.043190, 4.000000, 4.000000, 2.000000, 4.000000, 4.000000
112.000000, 0.000000, 4473.846191, 4177.948730, 3986.153809, 3909.743408, 3508.717773, 450.000000, 8160.000000, 8358.000000, 0.000000, 0.000000, 0.000000, 0.000000, 669.799988, 1557656112.051190, 4.000000, 4.000000, 2.000000, 4.000000, 4.000000
113.000000, 0.000000, 4486.666504, 4162.563965, 3968.205078, 3905.128174, 3504.615234, 450.000000, 8163.000000, 8358.000000, 0.000000, 0.000000, 0.000000, 0.000000, 677.799988, 1557656112.059190, 4.000000, 4.000000, 2.000000, 4.000000, 4.000000
114.000000, 0.000000, 4509.743652, 4176.410156, 3988.717773, 3930.256348, 3524.102539, 450.000000, 8155.000000, 8353.000000, 0.000000, 0.000000, 0.000000, 0.000000, 685.799988, 1557656112.067190, 4.000000, 4.000000, 2.000000, 4.000000, 4.000000
115.000000, 0.000000, 4506.666504, 4196.922852, 4000.512695, 3956.923096, 3535.384521, 16178.000000, 8154.000000, 8355.000000, 0.000000, 0.000000, 0.000000, 0.000000, 693.600006, 1557656112.074990, 4.000000, 4.000000, 2.000000, 4.000000, 4.000000
116.000000, 0.000000, 4501.538574, 4210.256348, 3972.307617, 3942.563965, 3551.281982, 450.000000, 8156.000000, 8347.000000, 0.000000, 0.000000, 0.000000, 0.000000, 701.399994, 1557656112.082790, 4.000000, 4.000000, 2.000000, 4.000000, 4.000000
117.000000, 0.000000, 4509.743652, 4209.743652, 4001.538330, 3912.307617, 3564.102539, 450.000000, 8155.000000, 8353.000000, 0.000000, 0.000000, 0.000000, 0.000000, 709.100006, 1557656112.090490, 4.000000, 4.000000, 2.000000, 4.000000, 4.000000
118.000000, 0.000000, 4509.230469, 4196.410156, 3974.358887, 3903.589600, 3482.051270, 450.000000, 8149.000000, 8360.000000, 0.000000, 0.000000, 0.000000, 0.000000, 716.899994, 1557656112.098290, 4.000000, 4.000000, 2.000000, 4.000000, 4.000000
119.000000, 0.000000, 4503.076660, 4187.179199, 3969.230713, 3896.923096, 3350.256348, 16178.000000, 8146.000000, 8354.000000, 0.000000, 0.000000, 0.000000, 0.000000, 724.899994, 1557656112.106290, 4.000000, 4.000000, 2.000000, 4.000000, 4.000000
120.000000, 0.000000, 4497.435547, 4180.512695, 3994.358887, 3885.128174, 3293.846191, 450.000000, 8147.000000, 8347.000000, 0.000000, 0.000000, 0.000000, 0.000000, 732.899994, 1557656112.114290, 4.000000, 4.000000, 2.000000, 4.000000, 4.000000
121.000000, 0.000000, 4479.487305, 4166.666504, 3971.281982, 3886.153809, 3295.384521, 450.000000, 8145.000000, 8341.000000, 0.000000, 0.000000, 0.000000, 0.000000, 740.899994, 1557656112.122290, 4.000000, 4.000000, 2.000000, 4.000000, 4.000000
122.000000, 0.000000, 4482.051270, 4166.153809, 3998.974365, 3886.666504, 3288.205078, 450.000000, 8146.000000, 8353.000000, 0.000000, 0.000000, 0.000000, 0.000000, 748.799988, 1557656112.130190, 4.000000, 4.000000, 2.000000, 4.000000, 4.000000
123.000000, 0.000000, 4502.051270, 4178.974121, 3992.820313, 3866.666504, 3256.410156, 16178.000000, 8148.000000, 8356.000000, 0.000000, 0.000000, 0.000000, 0.000000, 756.600006, 1557656112.137990, 4.000000, 4.000000, 2.000000, 4.000000, 4.000000
124.000000, 0.000000, 4494.358887, 4182.051270, 3992.820313, 3866.666504, 3222.051270, 450.000000, 8151.000000, 8346.000000, 0.000000, 0.000000, 0.000000, 0.000000, 764.399994, 1557656112.145790, 4.000000, 4.000000, 2.000000, 4.000000, 4.000000
125.000000, 0.000000, 4482.563965, 4179.487305, 4010.256348, 3900.512695, 3214.358887, 450.000000, 8144.000000, 8350.000000, 0.000000, 0.000000, 0.000000, 0.000000, 772.200012, 1557656112.153590, 4.000000, 4.000000, 2.000000, 4.000000, 4.000000
126.000000, 0.000000, 4488.717773, 4170.769043, 3974.871582, 3898.974365, 3214.358887, 450.000000, 8145.000000, 8351.000000, 0.000000, 0.000000, 0.000000, 0.000000, 780.200012, 1557656112.161590, 4.000000, 4.000000, 2.000000, 4.000000, 4.000000
127.000000, 0.000000, 4488.717773, 4171.794922, 3995.384521, 3862.563965, 3206.666504, 16178.000000, 8140.000000, 8345.000000, 0.000000, 0.000000, 0.000000, 0.000000, 787.899994, 1557656112.169290, 4.000000, 4.000000, 2.000000, 4.000000, 4.000000
128.000000, 0.000000, 4482.563965, 4191.794922, 3993.845947, 3849.230713, 3216.923096, 500.000000, 8147.000000, 8348.000000, 0.000000, 0.000000, 0.000000, 0.000000, 795.899994, 1557656112.177290, 4.000000, 4.000000, 2.000000, 4.000000, 4.000000
0.000000, 0.000000, 4487.179199, 4197.948730, 3988.205078, 3856.923096, 3240.512695, 500.000000, 8148.000000, 8355.000000, 0.000000, 0.000000, 0.000000, 0.000000, 803.899994, 1557656112.185290, 4.000000, 4.000000, 2.000000, 4.000000, 4.000000
1.000000, 0.000000, 4494.871582, 4196.410156, 4004.615234, 3860.000000, 3258.974365, 500.000000, 8144.000000, 8347.000000, 0.000000, 0.000000, 0.000000, 0.000000, 811.899994, 1557656112.193290, 4.000000, 4.000000, 2.000000, 4.000000, 4.000000
2.000000, 0.000000, 4488.717773, 4201.538574, 3967.179443, 3858.461426, 3285.128174, 16189.000000, 8147.000000, 8349.000000, 0.000000, 0.000000, 0.000000, 0.000000, 819.700012, 1557656112.201090, 4.000000, 4.000000, 2.000000, 4.000000, 4.000000
3.000000, 0.000000, 4474.871582, 4190.769043, 3981.538330, 3849.743408, 3313.846191, 500.000000, 8141.000000, 8353.000000, 0.000000, 0.000000, 0.000000, 0.000000, 827.399994, 1557656112.208790, 4.000000, 4.000000, 2.000000, 4.000000, 4.000000
4.000000, 0.000000, 4472.820313, 4176.410156, 3981.025635, 3827.179443, 3325.640869, 16093.000000, 8142.000000, 8343.000000, 0.000000, 0.000000, 0.000000, 0.000000, 835.200012, 1557656112.216590, 4.000000, 4.000000, 2.000000, 4.000000, 4.000000
5.000000, 0.000000, 4463.589844, 4181.025391, 3964.102539, 3823.076904, 3330.769043, 500.000000, 8142.000000, 8347.000000, 0.000000, 0.000000, 0.000000, 0.000000, 843.000000, 1557656112.224390, 4.000000, 4.000000, 2.000000, 4.000000, 4.000000
6.000000, 0.000000, 4412.820313, 4183.589844, 3982.051270, 3837.948730, 3345.640869, 257.000000, 8138.000000, 8357.000000, 0.000000, 0.000000, 0.000000, 0.000000, 850.899994, 1557656112.232290, 4.000000, 4.000000, 2.000000, 4.000000, 4.000000
7.000000, 0.000000, 4343.589844, 4169.743652, 3961.538330, 3840.000000, 3356.923096, 500.000000, 8139.000000, 8361.000000, 0.000000, 0.000000, 0.000000, 0.000000, 858.899994, 1557656112.240290, 4.000000, 4.000000, 2.000000, 4.000000, 4.000000
8.000000, 0.000000, 4315.897461, 4168.205078, 3991.794678, 3854.871582, 3355.897461, 500.000000, 8142.000000, 8352.000000, 0.000000, 0.000000, 0.000000, 0.000000, 866.799988, 1557656112.248190, 4.000000, 4.000000, 2.000000, 4.000000, 4.000000
9.000000, 0.000000, 4328.205078, 4188.717773, 3998.461426, 3896.923096, 3356.410156, 16159.000000, 8141.000000, 8341.000000, 0.000000, 0.000000, 0.000000, 0.000000, 874.799988, 1557656112.256190, 4.000000, 4.000000, 2.000000, 4.000000, 4.000000
10.000000, 0.000000, 4340.000000, 4212.307617, 3976.923096, 3905.640869, 3378.461426, 500.000000, 8140.000000, 8355.000000, 0.000000, 0.000000, 0.000000, 0.000000, 882.600006, 1557656112.263990, 4.000000, 4.000000, 2.000000, 4.000000, 4.000000
11.000000, 0.000000, 4333.846191, 4203.589844, 4004.102539, 3874.358887, 3404.615234, 16182.000000, 8138.000000, 8347.000000, 0.000000, 0.000000, 0.000000, 0.000000, 890.399994, 1557656112.271790, 4.000000, 4.000000, 2.000000, 4.000000, 4.000000
12.000000, 0.000000, 4324.102539, 4176.410156, 3976.410156, 3887.179443, 3414.871826, 500.000000, 8136.000000, 8352.000000, 0.000000, 0.000000, 0.000000, 0.000000, 898.200012, 1557656112.279590, 4.000000, 4.000000, 2.000000, 4.000000, 4.000000
13.000000, 0.000000, 4336.922852, 4183.076660, 3984.615234, 3948.205078, 3423.589600, 500.000000, 8138.000000, 8351.000000, 0.000000, 0.000000, 0.000000, 0.000000, 905.900024, 1557656112.287290, 4.000000, 4.000000, 2.000000, 4.000000, 4.000000
14.000000, 0.000000, 4352.307617, 4195.897461, 3991.281982, 3967.179443, 3433.333252, 450.000000, 8141.000000, 8347.000000, 0.000000, 0.000000, 0.000000, 0.000000, 913.799988, 1557656112.295190, 4.000000, 4.000000, 2.000000, 4.000000, 4.000000
15.000000, 0.000000, 4346.153809, 4176.922852, 3967.692139, 3952.820313, 3438.974365, 16182.000000, 8143.000000, 8350.000000, 0.000000, 0.000000, 0.000000, 0.000000, 921.799988, 1557656112.303190, 4.000000, 4.000000, 2.000000, 4.000000, 4.000000
16.000000, 0.000000, 4346.153809, 4167.179199, 3996.410156, 3966.666504, 3449.743408, 0.000000, 8139.000000, 8354.000000, 0.000000, 0.000000, 0.000000, 0.000000, 929.799988, 1557656112.311190, 4.000000, 4.000000, 2.000000, 4.000000, 4.000000
17.000000, 0.000000, 4357.948730, 4179.487305, 3973.333252, 3983.589600, 3466.153809, 0.000000, 8141.000000, 8351.000000, 0.000000, 0.000000, 0.000000, 0.000000, 937.799988, 1557656112.319190, 4.000000, 4.000000, 2.000000, 4.000000, 4.000000
18.000000, 0.000000, 4365.641113, 4187.179199, 3975.384521, 3988.717773, 3480.512695, 0.000000, 8139.000000, 8353.000000, 0.000000, 0.000000, 0.000000, 0.000000, 945.700012, 1557656112.327090, 4.000000, 4.000000, 2.000000, 4.000000, 4.000000
19.000000, 0.000000, 4369.743652, 4192.307617, 3989.743408, 4006.153809, 3484.102539, 0.000000, 8135.000000, 8360.000000, 0.000000, 0.000000, 0.000000, 0.000000, 953.500000, 1557656112.334890, 4.000000, 4.000000, 2.000000, 4.000000, 4.000000
20.000000, 0.000000, 4355.384277, 4193.846191, 3963.589600, 3997.435791, 3486.666504, 0.000000, 8141.000000, 8358.000000, 0.000000, 0.000000, 0.000000, 0.000000, 961.299988, 1557656112.342690, 4.000000, 4.000000, 2.000000, 4.000000, 4.000000
21.000000, 0.000000, 4341.538574, 4192.307617, 3994.871582, 3975.897217, 3508.717773, 0.000000, 8139.000000, 8345.000000, 0.000000, 0.000000, 0.000000, 0.000000, 969.099976, 1557656112.350490, 4.000000, 4.000000, 2.000000, 4.000000, 4.000000
22.000000, 0.000000, 4358.974121, 4195.384277, 3984.615234, 3985.640869, 3536.923096, 0.000000, 8142.000000, 8347.000000, 0.000000, 0.000000, 0.000000, 0.000000, 977.000000, 1557656112.358390, 4.000000, 4.000000, 2.000000, 4.000000, 4.000000
23.000000, 0.000000, 4374.871582, 4189.743652, 3971.794678, 3985.640869, 3552.820313, 0.000000, 8140.000000, 8361.000000, 0.000000, 0.000000, 0.000000, 0.000000, 984.900024, 1557656112.366290, 4.000000, 4.000000, 2.000000, 4.000000, 4.000000
24.000000, 0.000000, 4367.692383, 4179.487305, 3982.563965, 3958.461426, 3557.948730, 0.000000, 8143.000000, 8361.000000, 0.000000, 0.000000, 0.000000, 0.000000, 992.900024, 1557656112.374290, 4.000000, 4.000000, 2.000000, 4.000000, 4.000000
25.000000, 0.000000, 4365.641113, 4182.051270, 3973.845947, 3966.153809, 3570.256348, 0.000000, 8140.000000, 8347.000000, 0.000000, 0.000000, 0.000000, 1.000000, 0.900024, 1557656112.382290, 4.000000, 4.000000, 2.000000, 4.000000, 4.000000
26.000000, 0.000000, 4371.281738, 4190.256348, 4005.640869, 3989.743408, 3587.692139, 0.000000, 8139.000000, 8354.000000, 0.000000, 0.000000, 0.000000, 1.000000, 8.900024, 1557656112.390290, 4.000000, 4.000000, 2.000000, 4.000000, 4.000000
27.000000, 0.000000, 4354.358887, 4174.871582, 3967.179443, 3967.692139, 3576.923096, 0.000000, 8145.000000, 8355.000000, 0.000000, 0.000000, 0.000000, 1.000000, 16.700012, 1557656112.398090, 4.000000, 4.000000, 2.000000, 4.000000, 4.000000
28.000000, 0.000000, 4333.333008, 4159.487305, 3953.333252, 3969.230713, 3561.538330, 0.000000, 8145.000000, 8354.000000, 0.000000, 0.000000, 0.000000, 1.000000, 24.400024, 1557656112.405790, 4.000000, 4.000000, 2.000000, 4.000000, 4.000000
29.000000, 0.000000, 4345.641113, 4178.974121, 3999.487061, 4031.281982, 3590.256348, 0.000000, 8139.000000, 8356.000000, 0.000000, 0.000000, 0.000000, 1.000000, 32.200012, 1557656112.413590, 4.000000, 4.000000, 2.000000, 4.000000, 4.000000
30.000000, 0.000000, 4365.127930, 4200.000000, 3978.974365, 4070.256348, 3623.076904, 0.000000, 8143.000000, 8350.000000, 0.000000, 0.000000, 0.000000, 1.000000, 40.000000, 1557656112.421390, 4.000000, 4.000000, 2.000000, 4.000000, 4.000000
31.000000, 0.000000, 4355.897461, 4190.769043, 3995.384521, 4073.333252, 3635.384521, 0.000000, 8141.000000, 8355.000000, 0.000000, 0.000000, 0.000000, 1.000000, 47.900024, 1557656112.429290, 4.000000, 4.000000, 2.000000, 4.000000, 4.000000
32.000000, 0.000000, 4346.153809, 4181.025391, 3991.794678, 4071.794678, 3660.512695, 0.000000, 8135.000000, 8360.000000, 0.000000, 0.000000, 0.000000, 1.000000, 55.900024, 1557656112.437290, 4.000000, 4.000000, 2.000000, 4.000000, 4.000000
33.000000, 0.000000, 4351.281738, 4188.205078, 3968.205078, 4051.281982, 3686.153809, 0.000000, 8137.000000, 8360.000000, 0.000000, 0.000000, 0.000000, 1.000000, 63.799988, 1557656112.445190, 4.000000, 4.000000, 2.000000, 4.000000, 4.000000
34.000000, 0.000000, 4336.922852, 4182.563965, 3975.384521, 3995.897217, 3675.384521, 0.000000, 8142.000000, 8346.000000, 0.000000, 0.000000, 0.000000, 1.000000, 71.799988, 1557656112.453190, 4.000000, 4.000000, 2.000000, 4.000000, 4.000000
35.000000, 0.000000, 4320.512695, 4169.743652, 3950.769043, 3968.205078, 3666.666504, 0.000000, 8145.000000, 8352.000000, 0.000000, 0.000000, 0.000000, 1.000000, 79.799988, 1557656112.461190, 4.000000, 4.000000, 2.000000, 4.000000, 4.000000
36.000000, 0.000000, 4333.846191, 4185.641113, 3986.153809, 3998.974365, 3699.487061, 0.000000, 8145.000000, 8359.000000, 0.000000, 0.000000, 0.000000, 1.000000, 87.599976, 1557656112.468990, 4.000000, 4.000000, 2.000000, 4.000000, 4.000000
37.000000, 0.000000, 4346.153809, 4209.230469, 4003.589600, 4013.845947, 3720.000000, 0.000000, 8148.000000, 8350.000000, 0.000000, 0.000000, 0.000000, 1.000000, 95.400024, 1557656112.476790, 4.000000, 4.000000, 2.000000, 4.000000, 4.000000
38.000000, 0.000000, 4338.461426, 4203.589844, 3986.153809, 3989.230713, 3714.871582, 0.000000, 8151.000000, 8334.000000, 0.000000, 0.000000, 0.000000, 1.000000, 103.200012, 1557656112.484590, 4.000000, 4.000000, 2.000000, 4.000000, 4.000000
39.000000, 0.000000, 4338.461426, 4184.102539, 3995.384521, 3976.410156, 3738.974365, 0.000000, 8149.000000, 8336.000000, 0.000000, 0.000000, 0.000000, 1.000000, 110.900024, 1557656112.492290, 4.000000, 4.000000, 2.000000, 4.000000, 4.000000
40.000000, 0.000000, 4348.205078, 4188.205078, 3963.589600, 3982.051270, 3777.435791, 0.000000, 8153.000000, 8345.000000, 0.000000, 0.000000, 0.000000, 1.000000, 118.799988, 1557656112.500190, 4.000000, 4.000000, 2.000000, 4.000000, 4.000000
41.000000, 0.000000, 4353.846191, 4210.769043, 3981.025635, 3975.384521, 3784.102539, 0.000000, 8158.000000, 8342.000000, 0.000000, 0.000000, 0.000000, 1.000000, 126.799988, 1557656112.508190, 4.000000, 4.000000, 2.000000, 4.000000, 4.000000
42.000000, 0.000000, 4349.743652, 4212.307617, 3988.205078, 3977.948730, 3778.461426, 0.000000, 8153.000000, 8337.000000, 0.000000, 0.000000, 0.000000, 1.000000, 134.799988, 1557656112.516190, 4.000000, 4.000000, 2.000000, 4.000000, 4.000000
43.000000, 0.000000, 4341.025391, 4192.307617, 3967.179443, 3995.897217, 3795.384521, 0.000000, 8156.000000, 8339.000000, 0.000000, 0.000000, 0.000000, 1.000000, 142.799988, 1557656112.524190, 4.000000, 4.000000, 2.000000, 4.000000, 4.000000
44.000000, 0.000000, 4340.512695, 4195.384277, 3998.974365, 4005.128174, 3809.743408, 0.000000, 8154.000000, 8352.000000, 0.000000, 0.000000, 0.000000, 1.000000, 150.500000, 1557656112.531890, 4.000000, 4.000000, 2.000000, 4.000000, 4.000000
45.000000, 0.000000, 4340.512695, 4212.307617, 3978.461426, 4004.615234, 3812.820313, 0.000000, 8154.000000, 8358.000000, 0.000000, 0.000000, 0.000000, 1.000000, 158.299988, 1557656112.539690, 4.000000, 4.000000, 2.000000, 4.000000, 4.000000
46.000000, 0.000000, 4339.487305, 4196.410156, 3984.615234, 3998.974365, 3828.205078, 0.000000, 8147.000000, 8365.000000, 0.000000, 0.000000, 0.000000, 1.000000, 166.099976, 1557656112.547490, 4.000000, 4.000000, 2.000000, 4.000000, 4.000000
47.000000, 0.000000, 4341.025391, 4173.333008, 3995.384521, 4014.358887, 3839.487061, 0.000000, 8151.000000, 8353.000000, 0.000000, 0.000000, 0.000000, 1.000000, 174.000000, 1557656112.555390, 4.000000, 4.000000, 2.000000, 4.000000, 4.000000
48.000000, 0.000000, 4337.436035, 4184.102539, 3978.974365, 4037.435791, 3852.307617, 0.000000, 8161.000000, 8362.000000, 0.000000, 0.000000, 0.000000, 1.000000, 182.000000, 1557656112.563390, 4.000000, 4.000000, 2.000000, 4.000000, 4.000000
49.000000, 0.000000, 4333.846191, 4196.410156, 4012.307617, 4028.717773, 3883.589600, 0.000000, 8160.000000, 8369.000000, 0.000000, 0.000000, 0.000000, 1.000000, 189.900024, 1557656112.571290, 4.000000, 4.000000, 2.000000, 4.000000, 4.000000
50.000000, 0.000000, 4327.692383, 4187.179199, 3983.076904, 4004.615234, 3903.076904, 0.000000, 8153.000000, 8374.000000, 0.000000, 0.000000, 0.000000, 1.000000, 197.900024, 1557656112.579290, 4.000000, 4.000000, 2.000000, 4.000000, 4.000000
51.000000, 0.000000, 4315.384277, 4180.000000, 3981.538330, 4004.102539, 3903.076904, 0.000000, 8159.000000, 8357.000000, 0.000000, 0.000000, 0.000000, 1.000000, 205.900024, 1557656112.587290, 4.000000, 4.000000, 2.000000, 4.000000, 4.000000
52.000000, 0.000000, 4300.512695, 4174.358887, 4004.102539, 3987.692139, 3908.205078, 0.000000, 8150.000000, 8352.000000, 0.000000, 0.000000, 0.000000, 1.000000, 213.700012, 1557656112.595090, 4.000000, 4.000000, 2.000000, 4.000000, 4.000000
53.000000, 0.000000, 4282.563965, 4161.025391, 3970.256348, 3943.589600, 3908.205078, 0.000000, 8148.000000, 8359.000000, 0.000000, 0.000000, 0.000000, 1.000000, 221.500000, 1557656112.602890, 4.000000, 4.000000, 2.000000, 4.000000, 4.000000
54.000000, 0.000000, 4270.769043, 4154.871582, 3991.794678, 3964.102539, 3909.743408, 0.000000, 8150.000000, 8354.000000, 0.000000, 0.000000, 0.000000, 1.000000, 229.200012, 1557656112.610590, 4.000000, 4.000000, 2.000000, 4.000000, 4.000000
55.000000, 0.000000, 4268.717773, 4150.256348, 3988.205078, 4012.820313, 3930.256348, 0.000000, 8148.000000, 8351.000000, 0.000000, 0.000000, 0.000000, 1.000000, 237.000000, 1557656112.618390, 4.000000, 4.000000, 2.000000, 4.000000, 4.000000
56.000000, 0.000000, 4264.102539, 4142.051270, 3981.538330, 3997.435791, 3950.769043, 0.000000, 8143.000000, 8348.000000, 0.000000, 0.000000, 0.000000, 1.000000, 244.900024, 1557656112.626290, 4.000000, 4.000000, 2.000000, 4.000000, 4.000000
57.000000, 0.000000, 4258.461426, 4142.563965, 3984.615234, 3975.384521, 3965.128174, 0.000000, 8151.000000, 8350.000000, 0.000000, 0.000000, 0.000000, 1.000000, 252.799988, 1557656112.634190, 4.000000, 4.000000, 2.000000, 4.000000, 4.000000
58.000000, 0.000000, 4264.615234, 4141.025391, 3965.128174, 4003.076904, 3983.589600, 0.000000, 8153.000000, 8352.000000, 0.000000, 0.000000, 0.000000, 1.000000, 260.799988, 1557656112.642190, 4.000000, 4.000000, 2.000000, 4.000000, 4.000000
59.000000, 0.000000, 4270.256348, 4144.102539, 4007.692139, 4025.128174, 3997.948730, 0.000000, 8145.000000, 8356.000000, 0.000000, 0.000000, 0.000000, 1.000000, 268.700012, 1557656112.650090, 4.000000, 4.000000, 2.000000, 4.000000, 4.000000
60.000000, 0.000000, 4261.025391, 4153.333008, 3991.794678, 4013.333252, 3997.435791, 0.000000, 8156.000000, 8339.000000, 0.000000, 0.000000, 0.000000, 1.000000, 276.500000, 1557656112.657890, 4.000000, 4.000000, 2.000000, 4.000000, 4.000000
61.000000, 0.000000, 4260.000000, 4151.281738, 3978.461426, 4027.179443, 4010.256348, 0.000000, 8162.000000, 8347.000000, 0.000000, 0.000000, 0.000000, 1.000000, 284.299988, 1557656112.665690, 4.000000, 4.000000, 2.000000, 4.000000, 4.000000
62.000000, 0.000000, 4274.358887, 4148.205078, 4019.487061, 4059.487061, 4039.487061, 0.000000, 8159.000000, 8353.000000, 0.000000, 0.000000, 0.000000, 1.000000, 292.099976, 1557656112.673490, 4.000000, 4.000000, 2.000000, 4.000000, 4.000000
63.000000, 0.000000, 4270.256348, 4144.615234, 3993.333252, 4048.717773, 4049.743408, 0.000000, 8156.000000, 8349.000000, 0.000000, 0.000000, 0.000000, 1.000000, 299.900024, 1557656112.681290, 4.000000, 4.000000, 2.000000, 4.000000, 4.000000
64.000000, 0.000000, 4260.512695, 4141.025391, 3995.897217, 4025.640869, 4051.281982, 500.000000, 8150.000000, 8340.000000, 0.000000, 0.000000, 0.000000, 1.000000, 307.799988, 1557656112.689190, 4.000000, 4.000000, 2.000000, 4.000000, 4.000000
65.000000, 0.000000, 4266.666504, 4151.281738, 3988.717773, 4032.820313, 4064.102539, 500.000000, 8152.000000, 8344.000000, 0.000000, 0.000000, 0.000000, 1.000000, 315.799988, 1557656112.697190, 4.000000, 4.000000, 2.000000, 4.000000, 4.000000
66.000000, 0.000000, 4263.076660, 4153.846191, 3980.000000, 4060.512695, 4080.000000, 16187.000000, 8152.000000, 8351.000000, 0.000000, 0.000000, 0.000000, 1.000000, 323.799988, 1557656112.705190, 4.000000, 4.000000, 2.000000, 4.000000, 4.000000
67.000000, 0.000000, 4248.205078, 4141.538574, 4007.179443, 4075.897217, 4101.538574, 500.000000, 8148.000000, 8344.000000, 0.000000, 0.000000, 0.000000, 1.000000, 331.799988, 1557656112.713190, 4.000000, 4.000000, 2.000000, 4.000000, 4.000000
68.000000, 0.000000, 4246.153809, 4138.974121, 3974.871582, 4054.358887, 4132.820313, 16096.000000, 8144.000000, 8341.000000, 0.000000, 0.000000, 0.000000, 1.000000, 339.599976, 1557656112.720990, 4.000000, 4.000000, 2.000000, 4.000000, 4.000000
69.000000, 0.000000, 4253.846191, 4146.666504, 3990.769043, 4041.538330, 4167.179199, 500.000000, 8146.000000, 8342.000000, 0.000000, 0.000000, 0.000000, 1.000000, 347.299988, 1557656112.728690, 4.000000, 4.000000, 2.000000, 4.000000, 4.000000
70.000000, 0.000000, 4252.820313, 4148.717773, 4009.230713, 4047.692139, 4201.538574, 255.000000, 8142.000000, 8344.000000, 0.000000, 0.000000, 0.000000, 1.000000, 355.099976, 1557656112.736490, 4.000000, 4.000000, 2.000000, 4.000000, 4.000000
71.000000, 0.000000, 4253.846191, 4145.641113, 4000.512695, 4053.845947, 4243.076660, 500.000000, 8137.000000, 8346.000000, 0.000000, 0.000000, 0.000000, 1.000000, 362.900024, 1557656112.744290, 4.000000, 4.000000, 2.000000, 4.000000, 4.000000
72.000000, 0.000000, 4265.641113, 4148.205078, 4025.640869, 4077.948730, 4286.666504, 500.000000, 8133.000000, 8351.000000, 0.000000, 0.000000, 0.000000, 1.000000, 370.900024, 1557656112.752290, 4.000000, 4.000000, 2.000000, 4.000000, 4.000000
73.000000, 0.000000, 4258.461426, 4149.743652, 3988.205078, 4080.000000, 4286.153809, 16143.000000, 8135.000000, 8346.000000, 0.000000, 0.000000, 0.000000, 1.000000, 378.799988, 1557656112.760190, 4.000000, 4.000000, 2.000000, 4.000000, 4.000000
74.000000, 0.000000, 4234.358887, 4144.102539, 3983.076904, 4051.794678, 4258.461426, 500.000000, 8135.000000, 8346.000000, 0.000000, 0.000000, 0.000000, 1.000000, 386.700000, 1557656112.768090, 4.000000, 4.000000, 2.000000, 4.000000, 4.000000
75.000000, 0.000000, 4237.436035, 4145.641113, 4003.076904, 4060.000000, 4267.179199, 16172.000000, 8132.000000, 8357.000000, 0.000000, 0.000000, 0.000000, 1.000000, 394.700000, 1557656112.776090, 4.000000, 4.000000, 2.000000, 4.000000, 4.000000
76.000000, 0.000000, 4251.794922, 4161.538574, 3997.435791, 4097.436035, 4281.025391, 500.000000, 8127.000000, 8354.000000, 0.000000, 0.000000, 0.000000, 1.000000, 402.700001, 1557656112.784090, 4.000000, 4.000000, 2.000000, 4.000000, 4.000000
77.000000, 0.000000, 4244.102539, 4157.436035, 4011.281982, 4095.384521, 4254.871582, 500.000000, 8127.000000, 8348.000000, 0.000000, 0.000000, 0.000000, 1.000000, 410.500000, 1557656112.791890, 4.000000, 4.000000, 2.000000, 4.000000, 4.000000
78.000000, 0.000000, 4246.666504, 4141.538574, 3977.435791, 4085.640869, 4222.051270, 450.000000, 8126.000000, 8352.000000, 0.000000, 0.000000, 0.000000, 1.000000, 418.299999, 1557656112.799690, 4.000000, 4.000000, 2.000000, 4.000000, 4.000000
79.000000, 0.000000, 4268.205078, 4158.461426, 3992.820313, 4104.102539, 4213.846191, 16172.000000, 8127.000000, 8364.000000, 0.000000, 0.000000, 0.000000, 1.000000, 426.000000, 1557656112.807390, 4.000000, 4.000000, 2.000000, 4.000000, 4.000000
80.000000, 0.000000, 4260.000000, 4160.000000, 4002.563965, 4097.948730, 4215.897461, 450.000000, 8128.000000, 8363.000000, 0.000000, 0.000000, 0.000000, 1.000000, 433.799999, 1557656112.815190, 4.000000, 4.000000, 2.000000, 4.000000, 4.000000
81.000000, 0.000000, 4236.922852, 4134.358887, 3969.743408, 4080.512695, 4242.051270, 450.000000, 8131.000000, 8355.000000, 0.000000, 0.000000, 0.000000, 1.000000, 441.799999, 1557656112.823190, 4.000000, 4.000000, 2.000000, 4.000000, 4.000000
82.000000, 0.000000, 4243.076660, 4137.436035, 4005.640869, 4089.743408, 4302.051270, 450.000000, 8131.000000, 8361.000000, 0.000000, 0.000000, 0.000000, 1.000000, 449.800003, 1557656112.831190, 4.000000, 4.000000, 2.000000, 4.000000, 4.000000
83.000000, 0.000000, 4247.179199, 4144.102539, 3982.051270, 4098.461426, 4342.563965, 16172.000000, 8132.000000, 8356.000000, 0.000000, 0.000000, 0.000000, 1.000000, 457.800003, 1557656112.839190, 4.000000, 4.000000, 2.000000, 4.000000, 4.000000
84.000000, 0.000000, 4229.743652, 4133.846191, 3963.076904, 4098.461426, 4354.871582, 450.000000, 8135.000000, 8358.000000, 0.000000, 0.000000, 0.000000, 1.000000, 465.800003, 1557656112.847190, 4.000000, 4.000000, 2.000000, 4.000000, 4.000000
85.000000, 0.000000, 4233.333008, 4142.563965, 3982.563965, 4109.743652, 4391.794922, 450.000000, 8133.000000, 8363.000000, 0.000000, 0.000000, 0.000000, 1.000000, 473.699997, 1557656112.855090, 4.000000, 4.000000, 2.000000, 4.000000, 4.000000
86.000000, 0.000000, 4252.307617, 4155.897461, 3970.769043, 4114.871582, 4458.461426, 450.000000, 8136.000000, 8355.000000, 0.000000, 0.000000, 0.000000, 1.000000, 481.500000, 1557656112.862890, 4.000000, 4.000000, 2.000000, 4.000000, 4.000000
87.000000, 0.000000, 4243.076660, 4144.102539, 3994.358887, 4104.102539, 4506.666504, 16172.000000, 8140.000000, 8353.000000, 0.000000, 0.000000, 0.000000, 1.000000, 489.300003, 1557656112.870690, 4.000000, 4.000000, 2.000000, 4.000000, 4.000000
88.000000, 0.000000, 4231.794922, 4143.589844, 3969.230713, 4093.845947, 4527.692383, 450.000000, 8137.000000, 8364.000000, 0.000000, 0.000000, 0.000000, 1.000000, 497.099998, 1557656112.878490, 4.000000, 4.000000, 2.000000, 4.000000, 4.000000
89.000000, 0.000000, 4243.076660, 4151.281738, 3958.461426, 4083.076904, 4551.794922, 450.000000, 8138.000000, 8362.000000, 0.000000, 0.000000, 0.000000, 1.000000, 505.000000, 1557656112.886390, 4.000000, 4.000000, 2.000000, 4.000000, 4.000000
90.000000, 0.000000, 4247.692383, 4143.589844, 3982.051270, 4067.179443, 4574.358887, 450.000000, 8142.000000, 8353.000000, 0.000000, 0.000000, 0.000000, 1.000000, 512.899994, 1557656112.894290, 4.000000, 4.000000, 2.000000, 4.000000, 4.000000
91.000000, 0.000000, 4234.871582, 4137.436035, 3959.487061, 4057.948730, 4600.000000, 16172.000000, 8139.000000, 8354.000000, 0.000000, 0.000000, 0.000000, 1.000000, 520.899994, 1557656112.902290, 4.000000, 4.000000, 2.000000, 4.000000, 4.000000
92.000000, 0.000000, 4235.384277, 4147.692383, 3989.743408, 4061.025635, 4648.717773, 450.000000, 8142.000000, 8349.000000, 0.000000, 0.000000, 0.000000, 1.000000, 528.899994, 1557656112.910290, 4.000000, 4.000000, 2.000000, 4.000000, 4.000000
93.000000, 0.000000, 4242.051270, 4160.512695, 3989.230713, 4071.794678, 4695.897461, 450.000000, 8145.000000, 8359.000000, 0.000000, 0.000000, 0.000000, 1.000000, 536.899994, 1557656112.918290, 4.000000, 4.000000, 2.000000, 4.000000, 4.000000
94.000000, 0.000000, 4250.256348, 4163.076660, 3971.794678, 4078.461426, 4731.281738, 450.000000, 8143.000000, 8353.000000, 0.000000, 0.000000, 0.000000, 1.000000, 544.699997, 1557656112.926090, 4.000000, 4.000000, 2.000000, 4.000000, 4.000000
95.000000, 0.000000, 4258.461426, 4156.410156, 3992.307617, 4077.948730, 4771.794922, 16172.000000, 8150.000000, 8354.000000, 0.000000, 0.000000, 0.000000, 1.000000, 552.399994, 1557656112.933790, 4.000000, 4.000000, 2.000000, 4.000000, 4.000000
96.000000, 0.000000, 4255.384277, 4147.692383, 3969.743408, 4086.153809, 4801.025391, 450.000000, 8154.000000, 8352.000000, 0.000000, 0.000000, 0.000000, 1.000000, 560.199997, 1557656112.941590, 4.000000, 4.000000, 2.000000, 4.000000, 4.000000
97.000000, 0.000000, 4266.153809, 4155.384277, 3993.845947, 4102.051270, 4823.589844, 450.000000, 8151.000000, 8346.000000, 0.000000, 0.000000, 0.000000, 1.000000, 568.000000, 1557656112.949390, 4.000000, 4.000000, 2.000000, 4.000000, 4.000000
98.000000, 0.000000, 4280.000000, 4166.153809, 3990.769043, 4105.127930, 4839.487305, 450.000000, 8154.000000, 8350.000000, 0.000000, 0.000000, 0.000000, 1.000000, 575.899994, 1557656112.957290, 4.000000, 4.000000, 2.000000, 4.000000, 4.000000
99.000000, 0.000000, 4272.307617, 4170.769043, 3967.179443, 4096.922852, 4819.487305, 16172.000000, 8151.000000, 8350.000000, 0.000000, 0.000000, 0.000000, 1.000000, 583.899994, 1557656112.965290, 4.000000, 4.000000, 2.000000, 4.000000, 4.000000
100.000000, 0.000000, 4268.717773, 4172.820313, 3996.923096, 4086.666504, 4781.025391, 450.000000, 8155.000000, 8342.000000, 0.000000, 0.000000, 0.000000, 1.000000, 591.800003, 1557656112.973190, 4.000000, 4.000000, 2.000000, 4.000000, 4.000000
101.000000, 0.000000, 4273.333008, 4164.615234, 3983.589600, 4070.769043, 4770.769043, 450.000000, 8160.000000, 8345.000000, 0.000000, 0.000000, 0.000000, 1.000000, 599.800003, 1557656112.981190, 4.000000, 4.000000, 2.000000, 4.000000, 4.000000
102.000000, 0.000000, 4267.692383, 4157.436035, 3996.923096, 4059.487061, 4786.153809, 450.000000, 8160.000000, 8348.000000, 0.000000, 0.000000, 0.000000, 1.000000, 607.600006, 1557656112.988990, 4.000000, 4.000000, 2.000000, 4.000000, 4.000000
103.000000, 0.000000, 4256.410156, 4151.281738, 3985.128174, 4048.717773, 4793.333008, 16172.000000, 8163.000000, 8333.000000, 0.000000, 0.000000, 0.000000, 1.000000, 615.399994, 1557656112.996790, 4.000000, 4.000000, 2.000000, 4.000000, 4.000000
104.000000, 0.000000, 4261.538574, 4148.205078, 3962.051270, 4028.205078, 4808.205078, 450.000000, 8162.000000, 8338.000000, 0.000000, 0.000000, 0.000000, 1.000000, 623.199997, 1557656113.004590, 4.000000, 4.000000, 2.000000, 4.000000, 4.000000
105.000000, 0.000000, 4276.922852, 4160.512695, 4006.666504, 4021.025635, 4828.205078, 450.000000, 8158.000000, 8344.000000, 0.000000, 0.000000, 0.000000, 1.000000, 630.899994, 1557656113.012290, 4.000000, 4.000000, 2.000000, 4.000000, 4.000000
106.000000, 0.000000, 4293.846191, 4186.153809, 3993.845947, 4032.820313, 4827.179199, 450.000000, 8166.000000, 8343.000000, 0.000000, 0.000000, 0.000000, 1.000000, 638.899994, 1557656113.020290, 4.000000, 4.000000, 2.000000, 4.000000, 4.000000
107.000000, 0.000000, 4311.794922, 4187.179199, 4001.538330, 4026.666504, 4826.666504, 16172.000000, 8167.000000, 8335.000000, 0.000000, 0.000000, 0.000000, 1.000000, 646.899994, 1557656113.028290, 4.000000, 4.000000, 2.000000, 4.000000, 4.000000
108.000000, 0.000000, 4312.820313, 4169.743652, 4008.717773, 3990.769043, 4839.487305, 450.000000, 8164.000000, 8338.000000, 0.000000, 0.000000, 0.000000, 1.000000, 654.899994, 1557656113.036290, 4.000000, 4.000000, 2.000000, 4.000000, 4.000000
109.000000, 0.000000, 4292.820313, 4175.897461, 3980.000000, 3978.974365, 4848.717773, 450.000000, 8165.000000, 8341.000000, 0.000000, 0.000000, 0.000000, 1.000000, 662.899994, 1557656113.044290, 4.000000, 4.000000, 2.000000, 4.000000, 4.000000
110.000000, 0.000000, 4285.127930, 4177.436035, 4005.128174, 3991.281982, 4853.846191, 450.000000, 8163.000000, 8343.000000, 0.000000, 0.000000, 0.000000, 1.000000, 670.600006, 1557656113.051990, 4.000000, 4.000000, 2.000000, 4.000000, 4.000000
111.000000, 0.000000, 4310.769043, 4151.794922, 3991.281982, 3981.025635, 4862.563965, 16172.000000, 8168.000000, 8342.000000, 0.000000, 0.000000, 0.000000, 1.000000, 678.399994, 1557656113.059790, 4.000000, 4.000000, 2.000000, 4.000000, 4.000000
112.000000, 0.000000, 4320.512695, 4146.666504, 3996.923096, 3980.000000, 4867.179199, 450.000000, 8172.000000, 8349.000000, 0.000000, 0.000000, 0.000000, 1.000000, 686.200012, 1557656113.067590, 4.000000, 4.000000, 2.000000, 4.000000, 4.000000
113.000000, 0.000000, 4298.461426, 4176.922852, 4006.666504, 3993.845947, 4850.769043, 450.000000, 8180.000000, 8342.000000, 0.000000, 0.000000, 0.000000, 1.000000, 694.000000, 1557656113.075390, 4.000000, 4.000000, 2.000000, 4.000000, 4.000000
114.000000, 0.000000, 4297.436035, 4186.153809, 3973.845947, 3972.820313, 4817.435547, 450.000000, 8177.000000, 8348.000000, 0.000000, 0.000000, 0.000000, 1.000000, 702.000000, 1557656113.083390, 4.000000, 4.000000, 2.000000, 4.000000, 4.000000
115.000000, 0.000000, 4310.769043, 4178.974121, 4003.076904, 3956.923096, 4791.281738, 16172.000000, 8174.000000, 8351.000000, 0.000000, 0.000000, 0.000000, 1.000000, 709.799988, 1557656113.091190, 4.000000, 4.000000, 2.000000, 4.000000, 4.000000
116.000000, 0.000000, 4300.512695, 4182.563965, 3995.897217, 3979.487061, 4765.127930, 450.000000, 8172.000000, 8345.000000, 0.000000, 0.000000, 0.000000, 1.000000, 717.799988, 1557656113.099190, 4.000000, 4.000000, 2.000000, 4.000000, 4.000000
117.000000, 0.000000, 4284.615234, 4174.871582, 3983.589600, 3982.563965, 4733.333008, 450.000000, 8174.000000, 8340.000000, 0.000000, 0.000000, 0.000000, 1.000000, 725.799988, 1557656113.107190, 4.000000, 4.000000, 2.000000, 4.000000, 4.000000
118.000000, 0.000000, 4289.230469, 4163.076660, 3987.179443, 3955.384521, 4718.974121, 450.000000, 8170.000000, 8354.000000, 0.000000, 0.000000, 0.000000, 1.000000, 733.799988, 1557656113.115190, 4.000000, 4.000000, 2.000000, 4.000000, 4.000000
119.000000, 0.000000, 4295.384277, 4166.666504, 3957.435791, 3941.538330, 4720.512695, 16172.000000, 8174.000000, 8354.000000, 0.000000, 0.000000, 0.000000, 1.000000, 741.600006, 1557656113.122990, 4.000000, 4.000000, 2.000000, 4.000000, 4.000000
120.000000, 0.000000, 4297.948730, 4171.794922, 3989.230713, 3954.358887, 4721.025391, 450.000000, 8180.000000, 8342.000000, 0.000000, 0.000000, 0.000000, 1.000000, 749.299988, 1557656113.130690, 4.000000, 4.000000, 2.000000, 4.000000, 4.000000
121.000000, 0.000000, 4302.051270, 4166.153809, 3986.153809, 3973.333252, 4715.384277, 450.000000, 8172.000000, 8348.000000, 0.000000, 0.000000, 0.000000, 1.000000, 757.100006, 1557656113.138490, 4.000000, 4.000000, 2.000000, 4.000000, 4.000000
122.000000, 0.000000, 4308.717773, 4167.692383, 3978.974365, 3982.051270, 4709.230469, 450.000000, 8167.000000, 8352.000000, 0.000000, 0.000000, 0.000000, 1.000000, 765.000000, 1557656113.146390, 4.000000, 4.000000, 2.000000, 4.000000, 4.000000
123.000000, 0.000000, 4316.922852, 4178.974121, 4004.102539, 3965.640869, 4692.307617, 16172.000000, 8173.000000, 8351.000000, 0.000000, 0.000000, 0.000000, 1.000000, 772.799988, 1557656113.154190, 4.000000, 4.000000, 2.000000, 4.000000, 4.000000
124.000000, 0.000000, 4311.281738, 4175.384277, 3980.512695, 3950.256348, 4677.948730, 450.000000, 8171.000000, 8356.000000, 0.000000, 0.000000, 0.000000, 1.000000, 780.799988, 1557656113.162190, 4.000000, 4.000000, 2.000000, 4.000000, 4.000000
125.000000, 0.000000, 4309.230469, 4172.820313, 4003.589600, 3964.102539, 4699.487305, 450.000000, 8172.000000, 8363.000000, 0.000000, 0.000000, 0.000000, 1.000000, 788.700012, 1557656113.170090, 4.000000, 4.000000, 2.000000, 4.000000, 4.000000
126.000000, 0.000000, 4319.487305, 4181.538574, 3997.948730, 3968.717773, 4705.641113, 450.000000, 8167.000000, 8353.000000, 0.000000, 0.000000, 0.000000, 1.000000, 796.700012, 1557656113.178090, 4.000000, 4.000000, 2.000000, 4.000000, 4.000000
127.000000, 0.000000, 4317.948730, 4183.076660, 3981.025635, 3967.692139, 4646.666504, 16172.000000, 8161.000000, 8350.000000, 0.000000, 0.000000, 0.000000, 1.000000, 804.500000, 1557656113.185890, 4.000000, 4.000000, 2.000000, 4.000000, 4.000000
128.000000, 0.000000, 4324.102539, 4187.179199, 4016.923096, 3994.358887, 4606.666504, 500.000000, 8168.000000, 8358.000000, 0.000000, 0.000000, 0.000000, 1.000000, 812.299988, 1557656113.193690, 4.000000, 4.000000, 2.000000, 4.000000, 4.000000
0.000000, 0.000000, 4351.281738, 4206.666504, 4001.538330, 4010.256348, 4635.384277, 500.000000, 8167.000000, 8351.000000, 0.000000, 0.000000, 0.000000, 1.000000, 820.100006, 1557656113.201490, 4.000000, 4.000000, 2.000000, 4.000000, 4.000000
1.000000, 0.000000, 4350.256348, 4207.179199, 4008.205078, 3982.051270, 4644.615234, 500.000000, 8169.000000, 8338.000000, 0.000000, 0.000000, 0.000000, 1.000000, 827.899994, 1557656113.209290, 4.000000, 4.000000, 2.000000, 4.000000, 4.000000
2.000000, 0.000000, 4321.025391, 4185.641113, 3992.820313, 3970.769043, 4595.897461, 16197.000000, 8169.000000, 8344.000000, 0.000000, 0.000000, 0.000000, 1.000000, 835.799988, 1557656113.217190, 4.000000, 4.000000, 2.000000, 4.000000, 4.000000
3.000000, 0.000000, 4326.666504, 4179.487305, 3977.948730, 4008.205078, 4579.487305, 500.000000, 8177.000000, 8360.000000, 0.000000, 0.000000, 0.000000, 1.000000, 843.799988, 1557656113.225190, 4.000000, 4.000000, 2.000000, 4.000000, 4.000000
4.000000, 0.000000, 4353.846191, 4186.153809, 4009.743408, 4040.512695, 4623.589844, 16097.000000, 8175.000000, 8349.000000, 0.000000, 0.000000, 0.000000, 1.000000, 851.799988, 1557656113.233190, 4.000000, 4.000000, 2.000000, 4.000000, 4.000000
5.000000, 0.000000, 4349.230469, 4180.000000, 3970.769043, 4041.025635, 4645.127930, 500.000000, 8170.000000, 8342.000000, 0.000000, 0.000000, 0.000000, 1.000000, 859.799988, 1557656113.241190, 4.000000, 4.000000, 2.000000, 4.000000, 4.000000
6.000000, 0.000000, 4333.333008, 4175.384277, 3970.769043, 4031.794678, 4634.358887, 251.000000, 8165.000000, 8349.000000, 0.000000, 0.000000, 0.000000, 1.000000, 867.799988, 1557656113.249190, 4.000000, 4.000000, 2.000000, 4.000000, 4.000000
7.000000, 0.000000, 4337.436035, 4187.179199, 3981.025635, 4015.384521, 4640.000000, 500.000000, 8166.000000, 8355.000000, 0.000000, 0.000000, 0.000000, 1.000000, 875.500000, 1557656113.256890, 4.000000, 4.000000, 2.000000, 4.000000, 4.000000
8.000000, 0.000000, 4351.794922, 4198.974121, 3965.640869, 3989.743408, 4645.641113, 500.000000, 8165.000000, 8351.000000, 0.000000, 0.000000, 0.000000, 1.000000, 883.299988, 1557656113.264690, 4.000000, 4.000000, 2.000000, 4.000000, 4.000000
9.000000, 0.000000, 4363.589844, 4205.127930, 4000.000000, 3991.794678, 4622.563965, 16149.000000, 8158.000000, 8360.000000, 0.000000, 0.000000, 0.000000, 1.000000, 891.100006, 1557656113.272490, 4.000000, 4.000000, 2.000000, 4.000000, 4.000000
10.000000, 0.000000, 4353.846191, 4194.358887, 3980.000000, 4015.384521, 4581.538574, 500.000000, 8161.000000, 8361.000000, 0.000000, 0.000000, 0.000000, 1.000000, 898.900024, 1557656113.280290, 4.000000, 4.000000, 2.000000, 4.000000, 4.000000
11.000000, 0.000000, 4324.615234, 4152.307617, 3974.358887, 4003.076904, 4548.205078, 16149.000000, 8167.000000, 8362.000000, 0.000000, 0.000000, 0.000000, 1.000000, 906.900024, 1557656113.288290, 4.000000, 4.000000, 2.000000, 4.000000, 4.000000
12.000000, 0.000000, 4318.974121, 4138.461426, 3982.051270, 3976.410156, 4542.563965, 500.000000, 8161.000000, 8366.000000, 0.000000, 0.000000, 0.000000, 1.000000, 914.799988, 1557656113.296190, 4.000000, 4.000000, 2.000000, 4.000000, 4.000000
13.000000, 0.000000, 4335.384277, 4170.769043, 3969.230713, 3994.358887, 4551.794922, 500.000000, 8154.000000, 8369.000000, 0.000000, 0.000000, 0.000000, 1.000000, 922.799988, 1557656113.304190, 4.000000, 4.000000, 2.000000, 4.000000, 4.000000
14.000000, 0.000000, 4334.358887, 4182.051270, 4000.000000, 4020.512695, 4538.974121, 450.000000, 8160.000000, 8358.000000, 0.000000, 0.000000, 0.000000, 1.000000, 930.799988, 1557656113.312190, 4.000000, 4.000000, 2.000000, 4.000000, 4.000000
15.000000, 0.000000, 4322.563965, 4168.205078, 3975.897217, 4003.076904, 4511.794922, 16149.000000, 8160.000000, 8360.000000, 0.000000, 0.000000, 0.000000, 1.000000, 938.599976, 1557656113.319990, 4.000000, 4.000000, 2.000000, 4.000000, 4.000000
16.000000, 0.000000, 4316.922852, 4181.538574, 3973.845947, 3987.179443, 4508.717773, 0.000000, 8155.000000, 8365.000000, 0.000000, 0.000000, 0.000000, 1.000000, 946.400024, 1557656113.327790, 4.000000, 4.000000, 2.000000, 4.000000, 4.000000
17.000000, 0.000000, 4307.179199, 4195.897461, 3991.794678, 3976.923096, 4504.615234, 0.000000, 8151.000000, 8364.000000, 0.000000, 0.000000, 0.000000, 1.000000, 954.099976, 1557656113.335490, 4.000000, 4.000000, 2.000000, 4.000000, 4.000000
18.000000, 0.000000, 4293.846191, 4177.436035, 3965.640869, 3959.487061, 4475.897461, 0.000000, 8154.000000, 8352.000000, 0.000000, 0.000000, 0.000000, 1.000000, 961.900024, 1557656113.343290, 4.000000, 4.000000, 2.000000, 4.000000, 4.000000
19.000000, 0.000000, 4293.846191, 4165.127930, 3994.358887, 3952.820313, 4466.153809, 0.000000, 8154.000000, 8358.000000, 0.000000, 0.000000, 0.000000, 1.000000, 969.900024, 1557656113.351290, 4.000000, 4.000000, 2.000000, 4.000000, 4.000000
20.000000, 0.000000, 4307.692383, 4178.974121, 3983.589600, 3933.845947, 4474.358887, 0.000000, 8143.000000, 8356.000000, 0.000000, 0.000000, 0.000000, 1.000000, 977.900024, 1557656113.359290, 4.000000, 4.000000, 2.000000, 4.000000, 4.000000
21.000000, 0.000000, 4322.051270, 4190.769043, 3979.487061, 3903.589600, 4469.743652, 0.000000, 8151.000000, 8352.000000, 0.000000, 0.000000, 0.000000, 1.000000, 985.900024, 1557656113.367290, 4.000000, 4.000000, 2.000000, 4.000000, 4.000000
22.000000, 0.000000, 4322.051270, 4186.153809, 4005.640869, 3910.769043, 4470.769043, 0.000000, 8150.000000, 8348.000000, 0.000000, 0.000000, 0.000000, 1.000000, 993.799988, 1557656113.375190, 4.000000, 4.000000, 2.000000, 4.000000, 4.000000
23.000000, 0.000000, 4317.948730, 4189.230469, 3984.102539, 3930.769043, 4496.410156, 0.000000, 8152.000000, 8345.000000, 0.000000, 0.000000, 0.000000, 2.000000, 1.599976, 1557656113.382990, 4.000000, 4.000000, 2.000000, 4.000000, 4.000000
24.000000, 0.000000, 4326.666504, 4202.051270, 4009.743408, 3922.563965, 4515.897461, 0.000000, 8154.000000, 8342.000000, 0.000000, 0.000000, 0.000000, 2.000000, 9.400024, 1557656113.390790, 4.000000, 4.000000, 2.000000, 4.000000, 4.000000
25.000000, 0.000000, 4325.127930, 4190.769043, 3994.358887, 3914.871582, 4495.897461, 0.000000, 8156.000000, 8345.000000, 0.000000, 0.000000, 0.000000, 2.000000, 17.200012, 1557656113.398590, 4.000000, 4.000000, 2.000000, 4.000000, 4.000000
26.000000, 0.000000, 4312.820313, 4173.846191, 3973.333252, 3911.281982, 4469.743652, 0.000000, 8151.000000, 8337.000000, 0.000000, 0.000000, 0.000000, 2.000000, 25.000000, 1557656113.406390, 4.000000, 4.000000, 2.000000, 4.000000, 4.000000
27.000000, 0.000000, 4323.076660, 4188.205078, 4006.153809, 3892.307617, 4466.666504, 0.000000, 8148.000000, 8329.000000, 0.000000, 0.000000, 0.000000, 2.000000, 32.799988, 1557656113.414190, 4.000000, 4.000000, 2.000000, 4.000000, 4.000000
28.000000, 0.000000, 4325.641113, 4208.717773, 3982.051270, 3879.487061, 4455.897461, 0.000000, 8161.000000, 8328.000000, 0.000000, 0.000000, 0.000000, 2.000000, 40.799988, 1557656113.422190, 4.000000, 4.000000, 2.000000, 4.000000, 4.000000
29.000000, 0.000000, 4305.641113, 4202.563965, 3992.307617, 3878.461426, 4438.974121, 0.000000, 8153.000000, 8336.000000, 0.000000, 0.000000, 0.000000, 2.000000, 48.799988, 1557656113.430190, 4.000000, 4.000000, 2.000000, 4.000000, 4.000000
30.000000, 0.000000, 4309.743652, 4183.076660, 3990.256348, 3874.358887, 4418.974121, 0.000000, 8152.000000, 8343.000000, 0.000000, 0.000000, 0.000000, 2.000000, 56.799988, 1557656113.438190, 4.000000, 4.000000, 2.000000, 4.000000, 4.000000
31.000000, 0.000000, 4330.256348, 4182.563965, 3972.307617, 3879.487061, 4402.051270, 0.000000, 8160.000000, 8329.000000, 0.000000, 0.000000, 0.000000, 2.000000, 64.799988, 1557656113.446190, 4.000000, 4.000000, 2.000000, 4.000000, 4.000000
32.000000, 0.000000, 4339.487305, 4213.846191, 3999.487061, 3905.128174, 4430.769043, 0.000000, 8159.000000, 8328.000000, 0.000000, 0.000000, 0.000000, 2.000000, 72.500000, 1557656113.453890, 4.000000, 4.000000, 2.000000, 4.000000, 4.000000
33.000000, 0.000000, 4334.871582, 4226.666504, 3978.974365, 3909.230713, 4477.435547, 0.000000, 8154.000000, 8338.000000, 0.000000, 0.000000, 0.000000, 2.000000, 80.299988, 1557656113.461690, 4.000000, 4.000000, 2.000000, 4.000000, 4.000000
34.000000, 0.000000, 4323.589844, 4204.615234, 3984.102539, 3885.640869, 4477.435547, 0.000000, 8158.000000, 8329.000000, 0.000000, 0.000000, 0.000000, 2.000000, 88.099976, 1557656113.469490, 4.000000, 4.000000, 2.000000, 4.000000, 4.000000
35.000000, 0.000000, 4321.538574, 4208.205078, 3974.871582, 3888.205078, 4465.127930, 0.000000, 8156.000000, 8332.000000, 0.000000, 0.000000, 0.000000, 2.000000, 95.900024, 1557656113.477290, 4.000000, 4.000000, 2.000000, 4.000000, 4.000000
36.000000, 0.000000, 4338.461426, 4231.281738, 3966.666504, 3925.128174, 4463.589844, 0.000000, 8162.000000, 8335.000000, 0.000000, 0.000000, 0.000000, 2.000000, 103.900024, 1557656113.485290, 4.000000, 4.000000, 2.000000, 4.000000, 4.000000
37.000000, 0.000000, 4360.512695, 4225.641113, 4012.820313, 3949.230713, 4433.333008, 0.000000, 8160.000000, 8334.000000, 0.000000, 0.000000, 0.000000, 2.000000, 111.799988, 1557656113.493190, 4.000000, 4.000000, 2.000000, 4.000000, 4.000000
38.000000, 0.000000, 4366.153809, 4206.666504, 3981.538330, 3946.153809, 4399.487305, 0.000000, 8153.000000, 8336.000000, 0.000000, 0.000000, 0.000000, 2.000000, 119.799988, 1557656113.501190, 4.000000, 4.000000, 2.000000, 4.000000, 4.000000
39.000000, 0.000000, 4350.769043, 4203.589844, 3975.897217, 3948.205078, 4406.153809, 0.000000, 8155.000000, 8339.000000, 0.000000, 0.000000, 0.000000, 2.000000, 127.799988, 1557656113.509190, 4.000000, 4.000000, 2.000000, 4.000000, 4.000000
40.000000, 0.000000, 4328.205078, 4203.589844, 3985.128174, 3947.692139, 4400.512695, 0.000000, 8161.000000, 8339.000000, 0.000000, 0.000000, 0.000000, 2.000000, 135.599976, 1557656113.516990, 4.000000, 4.000000, 2.000000, 4.000000, 4.000000
41.000000, 0.000000, 4328.717773, 4197.436035, 3954.871582, 3929.230713, 4353.846191, 0.000000, 8161.000000, 8336.000000, 0.000000, 0.000000, 0.000000, 2.000000, 143.400024, 1557656113.524790, 4.000000, 4.000000, 2.000000, 4.000000, 4.000000
42.000000, 0.000000, 4343.589844, 4198.974121, 3976.923096, 3937.435791, 4312.307617, 0.000000, 8152.000000, 8347.000000, 0.000000, 0.000000, 0.000000, 2.000000, 151.099976, 1557656113.532490, 4.000000, 4.000000, 2.000000, 4.000000, 4.000000
43.000000, 0.000000, 4346.153809, 4205.127930, 3971.794678, 3967.179443, 4288.717773, 0.000000, 8154.000000, 8349.000000, 0.000000, 0.000000, 0.000000, 2.000000, 158.900024, 1557656113.540290, 4.000000, 4.000000, 2.000000, 4.000000, 4.000000
44.000000, 0.000000, 4354.358887, 4217.948730, 3990.256348, 3982.051270, 4269.230469, 0.000000, 8155.000000, 8337.000000, 0.000000, 0.000000, 0.000000, 2.000000, 166.900024, 1557656113.548290, 4.000000, 4.000000, 2.000000, 4.000000, 4.000000
45.000000, 0.000000, 4364.102539, 4219.487305, 4004.102539, 3989.743408, 4238.974121, 0.000000, 8164.000000, 8339.000000, 0.000000, 0.000000, 0.000000, 2.000000, 174.900024, 1557656113.556290, 4.000000, 4.000000, 2.000000, 4.000000, 4.000000
46.000000, 0.000000, 4354.871582, 4203.076660, 3970.769043, 3980.512695, 4185.641113, 0.000000, 8160.000000, 8354.000000, 0.000000, 0.000000, 0.000000, 2.000000, 182.900024, 1557656113.564290, 4.000000, 4.000000, 2.000000, 4.000000, 4.000000
47.000000, 0.000000, 4344.615234, 4200.000000, 3992.820313, 3948.717773, 4112.820313, 0.000000, 8158.000000, 8353.000000, 0.000000, 0.000000, 0.000000, 2.000000, 190.799988, 1557656113.572190, 4.000000, 4.000000, 2.000000, 4.000000, 4.000000
48.000000, 0.000000, 4344.615234, 4212.307617, 3983.076904, 3922.051270, 4038.974365, 0.000000, 8159.000000, 8342.000000, 0.000000, 0.000000, 0.000000, 2.000000, 198.799988, 1557656113.580190, 4.000000, 4.000000, 2.000000, 4.000000, 4.000000
49.000000, 0.000000, 4338.461426, 4212.820313, 3987.179443, 3915.897461, 3979.487061, 0.000000, 8157.000000, 8344.000000, 0.000000, 0.000000, 0.000000, 2.000000, 206.599976, 1557656113.587990, 4.000000, 4.000000, 2.000000, 4.000000, 4.000000
50.000000, 0.000000, 4344.615234, 4208.717773, 4003.076904, 3913.845947, 3910.769043, 0.000000, 8162.000000, 8347.000000, 0.000000, 0.000000, 0.000000, 2.000000, 214.400024, 1557656113.595790, 4.000000, 4.000000, 2.000000, 4.000000, 4.000000
51.000000, 0.000000, 4352.820313, 4207.179199, 3974.358887, 3905.640869, 3838.974365, 0.000000, 8158.000000, 8354.000000, 0.000000, 0.000000, 0.000000, 2.000000, 222.200012, 1557656113.603590, 4.000000, 4.000000, 2.000000, 4.000000, 4.000000
52.000000, 0.000000, 4341.025391, 4202.563965, 4007.179443, 3903.076904, 3809.230713, 0.000000, 8160.000000, 8357.000000, 0.000000, 0.000000, 0.000000, 2.000000, 230.099976, 1557656113.611490, 4.000000, 4.000000, 2.000000, 4.000000, 4.000000
53.000000, 0.000000, 4337.948730, 4202.051270, 3993.333252, 3902.563965, 3793.333252, 0.000000, 8163.000000, 8354.000000, 0.000000, 0.000000, 0.000000, 2.000000, 237.900024, 1557656113.619290, 4.000000, 4.000000, 2.000000, 4.000000, 4.000000
54.000000, 0.000000, 4343.589844, 4207.692383, 3960.512695, 3914.358887, 3747.692139, 0.000000, 8161.000000, 8351.000000, 0.000000, 0.000000, 0.000000, 2.000000, 245.900024, 1557656113.627290, 4.000000, 4.000000, 2.000000, 4.000000, 4.000000
55.000000, 0.000000, 4333.846191, 4202.563965, 3974.358887, 3944.102539, 3700.000000, 0.000000, 8156.000000, 8358.000000, 0.000000, 0.000000, 0.000000, 2.000000, 253.900024, 1557656113.635290, 4.000000, 4.000000, 2.000000, 4.000000, 4.000000
56.000000, 0.000000, 4326.666504, 4193.846191, 3962.051270, 3958.461426, 3664.615234, 0.000000, 8163.000000, 8358.000000, 0.000000, 0.000000, 0.000000, 2.000000, 261.900024, 1557656113.643290, 4.000000, 4.000000, 2.000000, 4.000000, 4.000000
57.000000, 0.000000, 4340.512695, 4194.871582, 3985.640869, 3953.845947, 3632.820313, 0.000000, 8168.000000, 8348.000000, 0.000000, 0.000000, 0.000000, 2.000000, 269.700012, 1557656113.651090, 4.000000, 4.000000, 2.000000, 4.000000, 4.000000
58.000000, 0.000000, 4343.076660, 4203.076660, 3974.358887, 3934.358887, 3624.102539, 0.000000, 8168.000000, 8346.000000, 0.000000, 0.000000, 0.000000, 2.000000, 277.400024, 1557656113.658790, 4.000000, 4.000000, 2.000000, 4.000000, 4.000000
59.000000, 0.000000, 4338.461426, 4204.102539, 3965.640869, 3925.128174, 3634.358887, 0.000000, 8170.000000, 8355.000000, 0.000000, 0.000000, 0.000000, 2.000000, 285.200012, 1557656113.666590, 4.000000, 4.000000, 2.000000, 4.000000, 4.000000
60.000000, 0.000000, 4355.384277, 4207.179199, 3992.307617, 3945.640869, 3629.230713, 0.000000, 8165.000000, 8356.000000, 0.000000, 0.000000, 0.000000, 2.000000, 293.000000, 1557656113.674390, 4.000000, 4.000000, 2.000000, 4.000000, 4.000000
61.000000, 0.000000, 4369.230469, 4223.589844, 3959.487061, 3963.076904, 3604.102539, 0.000000, 8165.000000, 8350.000000, 0.000000, 0.000000, 0.000000, 2.000000, 301.000000, 1557656113.682390, 4.000000, 4.000000, 2.000000, 4.000000, 4.000000
62.000000, 0.000000, 4365.127930, 4220.512695, 3975.897217, 3952.307617, 3585.128174, 0.000000, 8163.000000, 8349.000000, 0.000000, 0.000000, 0.000000, 2.000000, 309.000000, 1557656113.690390, 4.000000, 4.000000, 2.000000, 4.000000, 4.000000
63.000000, 0.000000, 4362.051270, 4194.358887, 3978.461426, 3922.051270, 3571.794678, 0.000000, 8163.000000, 8351.000000, 0.000000, 0.000000, 0.000000, 2.000000, 316.900024, 1557656113.698290, 4.000000, 4.000000, 2.000000, 4.000000, 4.000000
64.000000, 0.000000, 4369.743652, 4201.025391, 3969.743408, 3924.102539, 3572.820313, 500.000000, 8161.000000, 8353.000000, 0.000000, 0.000000, 0.000000, 2.000000, 324.900024, 1557656113.706290, 4.000000, 4.000000, 2.000000, 4.000000, 4.000000
65.000000, 0.000000, 4378.461426, 4226.153809, 4007.692139, 3953.333252, 3594.871826, 500.000000, 8165.000000, 8351.000000, 0.000000, 0.000000, 0.000000, 2.000000, 332.700012, 1557656113.714090, 4.000000, 4.000000, 2.000000, 4.000000, 4.000000
66.000000, 0.000000, 4374.358887, 4217.436035, 3971.794678, 3953.333252, 3605.640869, 16196.000000, 8162.000000, 8346.000000, 0.000000, 0.000000, 0.000000, 2.000000, 340.500000, 1557656113.721890, 4.000000, 4.000000, 2.000000, 4.000000, 4.000000
67.000000, 0.000000, 4367.692383, 4206.666504, 3967.692139, 3929.230713, 3593.333252, 500.000000, 8158.000000, 8344.000000, 0.000000, 0.000000, 0.000000, 2.000000, 348.299988, 1557656113.729690, 4.000000, 4.000000, 2.000000, 4.000000, 4.000000
68.000000, 0.000000, 4370.256348, 4220.512695, 3976.410156, 3924.615234, 3568.717773, 16100.000000, 8155.000000, 8351.000000, 0.000000, 0.000000, 0.000000, 2.000000, 356.000000, 1557656113.737390, 4.000000, 4.000000, 2.000000, 4.000000, 4.000000
69.000000, 0.000000, 4366.666504, 4219.487305, 3959.487061, 3938.974365, 3554.358887, 500.000000, 8154.000000, 8359.000000, 0.000000, 0.000000, 0.000000, 2.000000, 364.000000, 1557656113.745390, 4.000000, 4.000000, 2.000000, 4.000000, 4.000000
70.000000, 0.000000, 4352.307617, 4203.076660, 3971.794678, 3941.025635, 3558.974365, 257.000000, 8153.000000, 8351.000000, 0.000000, 0.000000, 0.000000, 2.000000, 371.799988, 1557656113.753190, 4.000000, 4.000000, 2.000000, 4.000000, 4.000000
71.000000, 0.000000, 4343.589844, 4196.410156, 3933.845947, 3926.666504, 3560.000000, 500.000000, 8150.000000, 8352.000000, 0.000000, 0.000000, 0.000000, 2.000000, 379.799988, 1557656113.761190, 4.000000, 4.000000, 2.000000, 4.000000, 4.000000
72.000000, 0.000000, 4350.769043, 4200.000000, 3948.717773, 3918.461426, 3567.692139, 500.000000, 8147.000000, 8364.000000, 0.000000, 0.000000, 0.000000, 2.000000, 387.800000, 1557656113.769190, 4.000000, 4.000000, 2.000000, 4.000000, 4.000000
73.000000, 0.000000, 4357.435547, 4209.743652, 3977.435791, 3920.512695, 3586.666504, 16151.000000, 8148.000000, 8360.000000, 0.000000, 0.000000, 0.000000, 2.000000, 395.500000, 1557656113.776890, 4.000000, 4.000000, 2.000000, 4.000000, 4.000000
74.000000, 0.000000, 4353.333008, 4210.769043, 3949.743408, 3913.845947, 3580.000000, 500.000000, 8151.000000, 8352.000000, 0.000000, 0.000000, 0.000000, 2.000000, 403.299999, 1557656113.784690, 4.000000, 4.000000, 2.000000, 4.000000, 4.000000
75.000000, 0.000000, 4362.563965, 4206.666504, 3973.845947, 3914.358887, 3571.281982, 16180.000000, 8145.000000, 8353.000000, 0.000000, 0.000000, 0.000000, 2.000000, 411.100000, 1557656113.792490, 4.000000, 4.000000, 2.000000, 4.000000, 4.000000
76.000000, 0.000000, 4386.666504, 4220.512695, 3972.820313, 3938.461426, 3595.384521, 500.000000, 8148.000000, 8357.000000, 0.000000, 0.000000, 0.000000, 2.000000, 419.000000, 1557656113.800390, 4.000000, 4.000000, 2.000000, 4.000000, 4.000000
77.000000, 0.000000, 4394.871582, 4231.281738, 3976.923096, 3941.025635, 3619.487061, 500.000000, 8149.000000, 8355.000000, 0.000000, 0.000000, 0.000000, 2.000000, 427.000000, 1557656113.808390, 4.000000, 4.000000, 2.000000, 4.000000, 4.000000
78.000000, 0.000000, 4385.641113, 4220.000000, 3972.820313, 3926.666504, 3619.487061, 450.000000, 8150.000000, 8353.000000, 0.000000, 0.000000, 0.000000, 2.000000, 434.900002, 1557656113.816290, 4.000000, 4.000000, 2.000000, 4.000000, 4.000000
79.000000, 0.000000, 4374.358887, 4210.256348, 3937.435791, 3923.076904, 3623.076904, 16180.000000, 8149.000000, 8353.000000, 0.000000, 0.000000, 0.000000, 2.000000, 442.900002, 1557656113.824290, 4.000000, 4.000000, 2.000000, 4.000000, 4.000000
80.000000, 0.000000, 4356.922852, 4202.563965, 3968.717773, 3902.051270, 3630.256348, 450.000000, 8145.000000, 8348.000000, 0.000000, 0.000000, 0.000000, 2.000000, 450.900002, 1557656113.832290, 4.000000, 4.000000, 2.000000, 4.000000, 4.000000
81.000000, 0.000000, 4334.358887, 4184.102539, 3946.153809, 3870.769043, 3627.692139, 450.000000, 8140.000000, 8358.000000, 0.000000, 0.000000, 0.000000, 2.000000, 458.900002, 1557656113.840290, 4.000000, 4.000000, 2.000000, 4.000000, 4.000000
82.000000, 0.000000, 4336.922852, 4190.256348, 3935.897461, 3876.410156, 3647.179443, 450.000000, 8142.000000, 8354.000000, 0.000000, 0.000000, 0.000000, 2.000000, 466.699997, 1557656113.848090, 4.000000, 4.000000, 2.000000, 4.000000, 4.000000
83.000000, 0.000000, 4363.589844, 4221.025391, 3968.717773, 3898.461426, 3676.923096, 16180.000000, 8145.000000, 8347.000000, 0.000000, 0.000000, 0.000000, 2.000000, 474.400002, 1557656113.855790, 4.000000, 4.000000, 2.000000, 4.000000, 4.000000
84.000000, 0.000000, 4371.281738, 4215.384277, 3937.435791, 3901.025635, 3672.820313, 450.000000, 8148.000000, 8346.000000, 0.000000, 0.000000, 0.000000, 2.000000, 482.199997, 1557656113.863590, 4.000000, 4.000000, 2.000000, 4.000000, 4.000000
85.000000, 0.000000, 4363.589844, 4196.922852, 3953.845947, 3919.487061, 3669.743408, 450.000000, 8144.000000, 8353.000000, 0.000000, 0.000000, 0.000000, 2.000000, 490.000000, 1557656113.871390, 4.000000, 4.000000, 2.000000, 4.000000, 4.000000
86.000000, 0.000000, 4374.871582, 4211.281738, 3957.948730, 3947.692139, 3696.923096, 450.000000, 8142.000000, 8349.000000, 0.000000, 0.000000, 0.000000, 2.000000, 497.800003, 1557656113.879190, 4.000000, 4.000000, 2.000000, 4.000000, 4.000000
87.000000, 0.000000, 4386.153809, 4221.025391, 3941.538330, 3940.512695, 3707.692139, 16180.000000, 8148.000000, 8342.000000, 0.000000, 0.000000, 0.000000, 2.000000, 505.800003, 1557656113.887190, 4.000000, 4.000000, 2.000000, 4.000000, 4.000000
88.000000, 0.000000, 4379.487305, 4206.666504, 3956.410156, 3921.025635, 3694.358887, 450.000000, 8140.000000, 8337.000000, 0.000000, 0.000000, 0.000000, 2.000000, 513.699997, 1557656113.895090, 4.000000, 4.000000, 2.000000, 4.000000, 4.000000
89.000000, 0.000000, 4378.461426, 4209.743652, 3952.307617, 3923.589600, 3692.307617, 450.000000, 8145.000000, 8345.000000, 0.000000, 0.000000, 0.000000, 2.000000, 521.699997, 1557656113.903090, 4.000000, 4.000000, 2.000000, 4.000000, 4.000000
90.000000, 0.000000, 4394.358887, 4236.922852, 3983.589600, 3935.384521, 3688.205078, 450.000000, 8146.000000, 8341.000000, 0.000000, 0.000000, 0.000000, 2.000000, 529.500000, 1557656113.910890, 4.000000, 4.000000, 2.000000, 4.000000, 4.000000
91.000000, 0.000000, 4391.281738, 4233.846191, 3964.615234, 3921.025635, 3661.538330, 16180.000000, 8143.000000, 8341.000000, 0.000000, 0.000000, 0.000000, 2.000000, 537.300003, 1557656113.918690, 4.000000, 4.000000, 2.000000, 4.000000, 4.000000
92.000000, 0.000000, 4370.769043, 4202.051270, 3942.051270, 3893.333252, 3647.692139, 450.000000, 8148.000000, 8340.000000, 0.000000, 0.000000, 0.000000, 2.000000, 545.100006, 1557656113.926490, 4.000000, 4.000000, 2.000000, 4.000000, 4.000000
93.000000, 0.000000, 4375.897461, 4205.127930, 3973.333252, 3891.281982, 3652.820313, 450.000000, 8146.000000, 8333.000000, 0.000000, 0.000000, 0.000000, 2.000000, 552.899994, 1557656113.934290, 4.000000, 4.000000, 2.000000, 4.000000, 4.000000
94.000000, 0.000000, 4399.487305, 4220.512695, 3943.076904, 3902.563965, 3665.640869, 450.000000, 8141.000000, 8338.000000, 0.000000, 0.000000, 0.000000, 2.000000, 560.899994, 1557656113.942290, 4.000000, 4.000000, 2.000000, 4.000000, 4.000000
95.000000, 0.000000, 4401.025391, 4205.641113, 3951.281982, 3904.615234, 3689.230713, 16180.000000, 8136.000000, 8346.000000, 0.000000, 0.000000, 0.000000, 2.000000, 568.899994, 1557656113.950290, 4.000000, 4.000000, 2.000000, 4.000000, 4.000000
96.000000, 0.000000, 4385.127930, 4199.487305, 3953.845947, 3897.435791, 3688.717773, 450.000000, 8141.000000, 8336.000000, 0.000000, 0.000000, 0.000000, 2.000000, 576.899994, 1557656113.958290, 4.000000, 4.000000, 2.000000, 4.000000, 4.000000
97.000000, 0.000000, 4391.794922, 4220.512695, 3937.948730, 3902.563965, 3674.871826, 450.000000, 8143.000000, 8333.000000, 0.000000, 0.000000, 0.000000, 2.000000, 584.899994, 1557656113.966290, 4.000000, 4.000000, 2.000000, 4.000000, 4.000000
98.000000, 0.000000, 4412.307617, 4228.717773, 3972.307617, 3901.538330, 3701.025635, 450.000000, 8138.000000, 8348.000000, 0.000000, 0.000000, 0.000000, 2.000000, 592.600006, 1557656113.973990, 4.000000, 4.000000, 2.000000, 4.000000, 4.000000
99.000000, 0.000000, 4413.846191, 4214.358887, 3949.230713, 3885.640869, 3727.179443, 16180.000000, 8139.000000, 8354.000000, 0.000000, 0.000000, 0.000000, 2.000000, 600.399994, 1557656113.981790, 4.000000, 4.000000, 2.000000, 4.000000, 4.000000
100.000000, 0.000000, 4404.615234, 4206.666504, 3952.307617, 3897.435791, 3707.692139, 450.000000, 8142.000000, 8347.000000, 0.000000, 0.000000, 0.000000, 2.000000, 608.199997, 1557656113.989590, 4.000000, 4.000000, 2.000000, 4.000000, 4.000000
101.000000, 0.000000, 4396.410156, 4213.846191, 3963.076904, 3908.717773, 3677.948730, 450.000000, 8138.000000, 8343.000000, 0.000000, 0.000000, 0.000000, 2.000000, 616.000000, 1557656113.997390, 4.000000, 4.000000, 2.000000, 4.000000, 4.000000
102.000000, 0.000000, 4386.153809, 4215.384277, 3949.743408, 3877.435791, 3668.717773, 450.000000, 8136.000000, 8356.000000, 0.000000, 0.000000, 0.000000, 2.000000, 624.000000, 1557656114.005390, 4.000000, 4.000000, 2.000000, 4.000000, 4.000000
103.000000, 0.000000, 4385.641113, 4209.230469, 3978.461426, 3857.948730, 3662.563965, 16180.000000, 8137.000000, 8357.000000, 0.000000, 0.000000, 0.000000, 2.000000, 632.000000, 1557656114.013390, 4.000000, 4.000000, 2.000000, 4.000000, 4.000000
104.000000, 0.000000, 4391.281738, 4210.769043, 3953.845947, 3847.692139, 3648.717773, 450.000000, 8140.000000, 8352.000000, 0.000000, 0.000000, 0.000000, 2.000000, 639.899994, 1557656114.021290, 4.000000, 4.000000, 2.000000, 4.000000, 4.000000
105.000000, 0.000000, 4382.051270, 4216.922852, 3963.076904, 3818.974365, 3638.461426, 450.000000, 8128.000000, 8360.000000, 0.000000, 0.000000, 0.000000, 2.000000, 647.899994, 1557656114.029290, 4.000000, 4.000000, 2.000000, 4.000000, 4.000000
106.000000, 0.000000, 4377.948730, 4205.641113, 3983.589600, 3826.153809, 3649.743408, 450.000000, 8131.000000, 8353.000000, 0.000000, 0.000000, 0.000000, 2.000000, 655.899994, 1557656114.037290, 4.000000, 4.000000, 2.000000, 4.000000, 4.000000
107.000000, 0.000000, 4391.794922, 4192.820313, 3956.410156, 3853.333252, 3668.205078, 16180.000000, 8132.000000, 8349.000000, 0.000000, 0.000000, 0.000000, 2.000000, 663.899994, 1557656114.045290, 4.000000, 4.000000, 2.000000, 4.000000, 4.000000
108.000000, 0.000000, 4386.666504, 4201.538574, 3978.974365, 3832.820313, 3660.000000, 450.000000, 8131.000000, 8359.000000, 0.000000, 0.000000, 0.000000, 2.000000, 671.700012, 1557656114.053090, 4.000000, 4.000000, 2.000000, 4.000000, 4.000000
109.000000, 0.000000, 4361.025391, 4197.948730, 3957.948730, 3814.358887, 3629.230713, 450.000000, 8134.000000, 8352.000000, 0.000000, 0.000000, 0.000000, 2.000000, 679.399994, 1557656114.060790, 4.000000, 4.000000, 2.000000, 4.000000, 4.000000
110.000000, 0.000000, 4367.179199, 4188.717773, 3968.717773, 3851.794678, 3627.692139, 450.000000, 8138.000000, 8351.000000, 0.000000, 0.000000, 0.000000, 2.000000, 687.200012, 1557656114.068590, 4.000000, 4.000000, 2.000000, 4.000000, 4.000000
111.000000, 0.000000, 4400.512695, 4209.230469, 4020.000000, 3871.281982, 3645.640869, 16180.000000, 8141.000000, 8362.000000, 0.000000, 0.000000, 0.000000, 2.000000, 695.000000, 1557656114.076390, 4.000000, 4.000000, 2.000000, 4.000000, 4.000000
112.000000, 0.000000, 4404.615234, 4228.717773, 3995.384521, 3838.461426, 3637.948730, 450.000000, 8137.000000, 8366.000000, 0.000000, 0.000000, 0.000000, 2.000000, 702.899994, 1557656114.084290, 4.000000, 4.000000, 2.000000, 4.000000, 4.000000
113.000000, 0.000000, 4393.333008, 4219.487305, 3989.230713, 3824.615234, 3629.230713, 450.000000, 8144.000000, 8349.000000, 0.000000, 0.000000, 0.000000, 2.000000, 710.899994, 1557656114.092290, 4.000000, 4.000000, 2.000000, 4.000000, 4.000000
114.000000, 0.000000, 4404.102539, 4214.871582, 3969.743408, 3839.487061, 3649.743408, 450.000000, 8148.000000, 8350.000000, 0.000000, 0.000000, 0.000000, 2.000000, 718.799988, 1557656114.100190, 4.000000, 4.000000, 2.000000, 4.000000, 4.000000
115.000000, 0.000000, 4409.230469, 4216.922852, 3964.615234, 3828.717773, 3658.461426, 16180.000000, 8148.000000, 8355.000000, 0.000000, 0.000000, 0.000000, 2.000000, 726.600006, 1557656114.107990, 4.000000, 4.000000, 2.000000, 4.000000, 4.000000
116.000000, 0.000000, 4402.051270, 4205.641113, 3982.051270, 3810.769043, 3640.000000, 450.000000, 8152.000000, 8351.000000, 0.000000, 0.000000, 0.000000, 2.000000, 734.399994, 1557656114.115790, 4.000000, 4.000000, 2.000000, 4.000000, 4.000000
117.000000, 0.000000, 4412.307617, 4213.846191, 3965.640869, 3842.051270, 3648.717773, 450.000000, 8149.000000, 8349.000000, 0.000000, 0.000000, 0.000000, 2.000000, 742.200012, 1557656114.123590, 4.000000, 4.000000, 2.000000, 4.000000, 4.000000
118.000000, 0.000000, 4429.743652, 4244.615234, 3995.384521, 3868.717773, 3689.743408, 450.000000, 8152.000000, 8346.000000, 0.000000, 0.000000, 0.000000, 2.000000, 750.200012, 1557656114.131590, 4.000000, 4.000000, 2.000000, 4.000000, 4.000000
119.000000, 0.000000, 4417.948730, 4246.666504, 3971.794678, 3845.640869, 3708.717773, 16180.000000, 8154.000000, 8345.000000, 0.000000, 0.000000, 0.000000, 2.000000, 757.899994, 1557656114.139290, 4.000000, 4.000000, 2.000000, 4.000000, 4.000000
120.000000, 0.000000, 4397.948730, 4225.641113, 3949.743408, 3845.128174, 3729.230713, 450.000000, 8152.000000, 8344.000000, 0.000000, 0.000000, 0.000000, 2.000000, 765.899994, 1557656114.147290, 4.000000, 4.000000, 2.000000, 4.000000, 4.000000
121.000000, 0.000000, 4396.922852, 4217.948730, 3984.102539, 3869.743408, 3764.102539, 450.000000, 8147.000000, 8343.000000, 0.000000, 0.000000, 0.000000, 2.000000, 773.899994, 1557656114.155290, 4.000000, 4.000000, 2.000000, 4.000000, 4.000000
122.000000, 0.000000, 4392.307617, 4222.051270, 3951.794678, 3860.000000, 3768.205078, 450.000000, 8150.000000, 8350.000000, 0.000000, 0.000000, 0.000000, 2.000000, 781.899994, 1557656114.163290, 4.000000, 4.000000, 2.000000, 4.000000, 4.000000
123.000000, 0.000000, 4382.563965, 4218.461426, 3956.923096, 3849.743408, 3750.769043, 16180.000000, 8151.000000, 8343.000000, 0.000000, 0.000000, 0.000000, 2.000000, 789.700012, 1557656114.171090, 4.000000, 4.000000, 2.000000, 4.000000, 4.000000
124.000000, 0.000000, 4384.102539, 4217.436035, 3960.000000, 3871.281982, 3751.281982, 450.000000, 8147.000000, 8349.000000, 0.000000, 0.000000, 0.000000, 2.000000, 797.399994, 1557656114.178790, 4.000000, 4.000000, 2.000000, 4.000000, 4.000000
125.000000, 0.000000, 4395.384277, 4224.102539, 3952.307617, 3898.974365, 3773.845947, 450.000000, 8136.000000, 8350.000000, 0.000000, 0.000000, 0.000000, 2.000000, 805.200012, 1557656114.186590, 4.000000, 4.000000, 2.000000, 4.000000, 4.000000
126.000000, 0.000000, 4404.615234, 4223.589844, 3980.000000, 3906.153809, 3814.871582, 450.000000, 8144.000000, 8342.000000, 0.000000, 0.000000, 0.000000, 2.000000, 813.000000, 1557656114.194390, 4.000000, 4.000000, 2.000000, 4.000000, 4.000000
127.000000, 0.000000, 4400.512695, 4223.589844, 3948.205078, 3883.076904, 3864.102539, 16180.000000, 8145.000000, 8341.000000, 0.000000, 0.000000, 0.000000, 2.000000, 821.000000, 1557656114.202390, 4.000000, 4.000000, 2.000000, 4.000000, 4.000000
128.000000, 0.000000, 4384.615234, 4227.179199, 3965.640869, 3862.563965, 3893.333252, 500.000000, 8139.000000, 8356.000000, 0.000000, 0.000000, 0.000000, 2.000000, 829.000000, 1557656114.210390, 4.000000, 4.000000, 2.000000, 4.000000, 4.000000
0.000000, 0.000000, 4377.435547, 4225.127930, 3980.512695, 3870.769043, 3893.333252, 500.000000, 8147.000000, 8360.000000, 0.000000, 0.000000, 0.000000, 2.000000, 836.899994, 1557656114.218290, 4.000000, 4.000000, 2.000000, 4.000000, 4.000000
1.000000, 0.000000, 4378.461426, 4206.666504, 3950.256348, 3891.281982, 3879.487061, 500.000000, 8139.000000, 8348.000000, 0.000000, 0.000000, 0.000000, 2.000000, 844.799988, 1557656114.226190, 4.000000, 4.000000, 2.000000, 4.000000, 4.000000
2.000000, 0.000000, 4371.281738, 4198.461426, 3974.871582, 3910.769043, 3872.307617, 16193.000000, 8143.000000, 8357.000000, 0.000000, 0.000000, 0.000000, 2.000000, 852.799988, 1557656114.234190, 4.000000, 4.000000, 2.000000, 4.000000, 4.000000
3.000000, 0.000000, 4366.153809, 4220.512695, 3964.615234, 3930.769043, 3874.358887, 500.000000, 8140.000000, 8356.000000, 0.000000, 0.000000, 0.000000, 2.000000, 860.600006, 1557656114.241990, 4.000000, 4.000000, 2.000000, 4.000000, 4.000000
4.000000, 0.000000, 4365.641113, 4225.127930, 3965.128174, 3950.256348, 3873.333252, 16098.000000, 8139.000000, 8357.000000, 0.000000, 0.000000, 0.000000, 2.000000, 868.399994, 1557656114.249790, 4.000000, 4.000000, 2.000000, 4.000000, 4.000000
5.000000, 0.000000, 4363.076660, 4207.179199, 3971.794678, 3958.461426, 3870.769043, 500.000000, 8138.000000, 8362.000000, 0.000000, 0.000000, 0.000000, 2.000000, 876.100006, 1557656114.257490, 4.000000, 4.000000, 2.000000, 4.000000, 4.000000
6.000000, 0.000000, 4360.512695, 4203.589844, 3964.615234, 3953.845947, 3877.435791, 239.000000, 8135.000000, 8355.000000, 0.000000, 0.000000, 0.000000, 2.000000, 884.000000, 1557656114.265390, 4.000000, 4.000000, 2.000000, 4.000000, 4.000000
7.000000, 0.000000, 4362.563965, 4225.641113, 3992.307617, 3967.692139, 3907.692139, 500.000000, 8139.000000, 8351.000000, 0.000000, 0.000000, 0.000000, 2.000000, 892.000000, 1557656114.273390, 4.000000, 4.000000, 2.000000, 4.000000, 4.000000
8.000000, 0.000000, 4361.538574, 4235.897461, 3958.461426, 4004.615234, 3948.717773, 500.000000, 8137.000000, 8355.000000, 0.000000, 0.000000, 0.000000, 2.000000, 900.000000, 1557656114.281390, 4.000000, 4.000000, 2.000000, 4.000000, 4.000000
9.000000, 0.000000, 4348.205078, 4215.897461, 3961.538330, 4001.025635, 3977.948730, 16140.000000, 8136.000000, 8361.000000, 0.000000, 0.000000, 0.000000, 2.000000, 907.900024, 1557656114.289290, 4.000000, 4.000000, 2.000000, 4.000000, 4.000000
10.000000, 0.000000, 4338.461426, 4196.922852, 3981.538330, 3965.128174, 3994.871582, 500.000000, 8145.000000, 8362.000000, 0.000000, 0.000000, 0.000000, 2.000000, 915.799988, 1557656114.297190, 4.000000, 4.000000, 2.000000, 4.000000, 4.000000
11.000000, 0.000000, 4343.589844, 4204.102539, 3950.256348, 3965.128174, 4011.794678, 16170.000000, 8141.000000, 8353.000000, 0.000000, 0.000000, 0.000000, 2.000000, 923.599976, 1557656114.304990, 4.000000, 4.000000, 2.000000, 4.000000, 4.000000
12.000000, 0.000000, 4353.846191, 4224.102539, 3977.948730, 3982.563965, 4045.640869, 500.000000, 8142.000000, 8368.000000, 0.000000, 0.000000, 0.000000, 2.000000, 931.400024, 1557656114.312790, 4.000000, 4.000000, 2.000000, 4.000000, 4.000000
13.000000, 0.000000, 4347.179199, 4221.025391, 3962.051270, 3964.102539, 4074.871582, 500.000000, 8145.000000, 8366.000000, 0.000000, 0.000000, 0.000000, 2.000000, 939.200012, 1557656114.320590, 4.000000, 4.000000, 2.000000, 4.000000, 4.000000
14.000000, 0.000000, 4341.538574, 4212.820313, 3943.589600, 3947.179443, 4086.666504, 450.000000, 8142.000000, 8358.000000, 0.000000, 0.000000, 0.000000, 2.000000, 947.000000, 1557656114.328390, 4.000000, 4.000000, 2.000000, 4.000000, 4.000000
15.000000, 0.000000, 4349.230469, 4220.000000, 3962.563965, 3968.205078, 4111.794922, 16170.000000, 8148.000000, 8359.000000, 0.000000, 0.000000, 0.000000, 2.000000, 954.900024, 1557656114.336290, 4.000000, 4.000000, 2.000000, 4.000000, 4.000000
16.000000, 0.000000, 4348.205078, 4223.076660, 3946.153809, 3972.820313, 4147.179199, 0.000000, 8144.000000, 8364.000000, 0.000000, 0.000000, 0.000000, 2.000000, 962.900024, 1557656114.344290, 4.000000, 4.000000, 2.000000, 4.000000, 4.000000
17.000000, 0.000000, 4345.641113, 4219.487305, 3971.794678, 3952.307617, 4158.974121, 0.000000, 8142.000000, 8360.000000, 0.000000, 0.000000, 0.000000, 2.000000, 970.799988, 1557656114.352190, 4.000000, 4.000000, 2.000000, 4.000000, 4.000000
18.000000, 0.000000, 4346.666504, 4214.871582, 3960.512695, 3943.589600, 4150.256348, 0.000000, 8143.000000, 8360.000000, 0.000000, 0.000000, 0.000000, 2.000000, 978.799988, 1557656114.360190, 4.000000, 4.000000, 2.000000, 4.000000, 4.000000
19.000000, 0.000000, 4345.641113, 4218.461426, 3952.820313, 3952.820313, 4163.589844, 0.000000, 8141.000000, 8355.000000, 0.000000, 0.000000, 0.000000, 2.000000, 986.599976, 1557656114.367990, 4.000000, 4.000000, 2.000000, 4.000000, 4.000000
20.000000, 0.000000, 4354.358887, 4222.051270, 3978.974365, 3966.153809, 4194.358887, 0.000000, 8144.000000, 8350.000000, 0.000000, 0.000000, 0.000000, 2.000000, 994.299988, 1557656114.375690, 4.000000, 4.000000, 2.000000, 4.000000, 4.000000
21.000000, 0.000000, 4357.435547, 4212.820313, 3947.692139, 3966.666504, 4194.871582, 0.000000, 8145.000000, 8345.000000, 0.000000, 0.000000, 0.000000, 3.000000, 2.099976, 1557656114.383490, 4.000000, 4.000000, 2.000000, 4.000000, 4.000000
22.000000, 0.000000, 4341.538574, 4213.846191, 3957.948730, 3974.871582, 4175.897461, 0.000000, 8143.000000, 8356.000000, 0.000000, 0.000000, 0.000000, 3.000000, 10.099976, 1557656114.391490, 4.000000, 4.000000, 2.000000, 4.000000, 4.000000
23.000000, 0.000000, 4336.922852, 4220.512695, 3945.640869, 3989.743408, 4168.717773, 0.000000, 8148.000000, 8354.000000, 0.000000, 0.000000, 0.000000, 3.000000, 18.000000, 1557656114.399390, 4.000000, 4.000000, 2.000000, 4.000000, 4.000000
24.000000, 0.000000, 4335.384277, 4213.333008, 3930.256348, 3986.666504, 4158.974121, 0.000000, 8147.000000, 8343.000000, 0.000000, 0.000000, 0.000000, 3.000000, 26.000000, 1557656114.407390, 4.000000, 4.000000, 2.000000, 4.000000, 4.000000
25.000000, 0.000000, 4313.846191, 4213.846191, 3966.153809, 3986.666504, 4138.461426, 0.000000, 8146.000000, 8353.000000, 0.000000, 0.000000, 0.000000, 3.000000, 33.900024, 1557656114.415290, 4.000000, 4.000000, 2.000000, 4.000000, 4.000000
26.000000, 0.000000, 4315.384277, 4224.102539, 3954.358887, 4008.205078, 4121.025391, 0.000000, 8145.000000, 8357.000000, 0.000000, 0.000000, 0.000000, 3.000000, 41.799988, 1557656114.423190, 4.000000, 4.000000, 2.000000, 4.000000, 4.000000
27.000000, 0.000000, 4347.692383, 4229.230469, 3984.102539, 4035.897217, 4127.692383, 0.000000, 8148.000000, 8344.000000, 0.000000, 0.000000, 0.000000, 3.000000, 49.799988, 1557656114.431190, 4.000000, 4.000000, 2.000000, 4.000000, 4.000000
28.000000, 0.000000, 4356.922852, 4243.076660, 3990.769043, 4031.281982, 4145.641113, 0.000000, 8148.000000, 8338.000000, 0.000000, 0.000000, 0.000000, 3.000000, 57.599976, 1557656114.438990, 4.000000, 4.000000, 2.000000, 4.000000, 4.000000
29.000000, 0.000000, 4347.692383, 4243.076660, 3967.692139, 4021.025635, 4154.871582, 0.000000, 8150.000000, 8348.000000, 0.000000, 0.000000, 0.000000, 3.000000, 65.400024, 1557656114.446790, 4.000000, 4.000000, 2.000000, 4.000000, 4.000000
30.000000, 0.000000, 4358.461426, 4218.974121, 3997.435791, 4040.512695, 4163.589844, 0.000000, 8150.000000, 8354.000000, 0.000000, 0.000000, 0.000000, 3.000000, 73.200012, 1557656114.454590, 4.000000, 4.000000, 2.000000, 4.000000, 4.000000
31.000000, 0.000000, 4365.641113, 4217.948730, 3970.769043, 4061.025635, 4179.487305, 0.000000, 8147.000000, 8346.000000, 0.000000, 0.000000, 0.000000, 3.000000, 80.900024, 1557656114.462290, 4.000000, 4.000000, 2.000000, 4.000000, 4.000000
32.000000, 0.000000, 4355.384277, 4236.922852, 3973.845947, 4078.461426, 4199.487305, 0.000000, 8142.000000, 8343.000000, 0.000000, 0.000000, 0.000000, 3.000000, 88.900024, 1557656114.470290, 4.000000, 4.000000, 2.000000, 4.000000, 4.000000
33.000000, 0.000000, 4347.179199, 4239.487305, 3986.153809, 4094.358887, 4200.512695, 0.000000, 8151.000000, 8343.000000, 0.000000, 0.000000, 0.000000, 3.000000, 96.900024, 1557656114.478290, 4.000000, 4.000000, 2.000000, 4.000000, 4.000000
34.000000, 0.000000, 4348.205078, 4233.333008, 3961.025635, 4081.025635, 4191.281738, 0.000000, 8145.000000, 8346.000000, 0.000000, 0.000000, 0.000000, 3.000000, 104.900024, 1557656114.486290, 4.000000, 4.000000, 2.000000, 4.000000, 4.000000
35.000000, 0.000000, 4360.000000, 4227.179199, 3973.845947, 4054.871582, 4190.256348, 0.000000, 8138.000000, 8352.000000, 0.000000, 0.000000, 0.000000, 3.000000, 112.900024, 1557656114.494290, 4.000000, 4.000000, 2.000000, 4.000000, 4.000000
36.000000, 0.000000, 4363.076660, 4217.948730, 3949.230713, 4060.000000, 4187.179199, 0.000000, 8142.000000, 8358.000000, 0.000000, 0.000000, 0.000000, 3.000000, 120.599976, 1557656114.501990, 4.000000, 4.000000, 2.000000, 4.000000, 4.000000
37.000000, 0.000000, 4356.410156, 4222.051270, 3955.897461, 4074.871582, 4182.051270, 0.000000, 8144.000000, 8349.000000, 0.000000, 0.000000, 0.000000, 3.000000, 128.400024, 1557656114.509790, 4.000000, 4.000000, 2.000000, 4.000000, 4.000000
38.000000, 0.000000, 4368.205078, 4235.384277, 3969.743408, 4064.615234, 4179.487305, 0.000000, 8146.000000, 8346.000000, 0.000000, 0.000000, 0.000000, 3.000000, 136.200012, 1557656114.517590, 4.000000, 4.000000, 2.000000, 4.000000, 4.000000
39.000000, 0.000000, 4383.589844, 4230.256348, 3948.717773, 4050.769043, 4172.307617, 0.000000, 8138.000000, 8356.000000, 0.000000, 0.000000, 0.000000, 3.000000, 144.000000, 1557656114.525390, 4.000000, 4.000000, 2.000000, 4.000000, 4.000000
40.000000, 0.000000, 4372.820313, 4224.102539, 3978.461426, 4034.358887, 4157.948730, 0.000000, 8136.000000, 8345.000000, 0.000000, 0.000000, 0.000000, 3.000000, 152.000000, 1557656114.533390, 4.000000, 4.000000, 2.000000, 4.000000, 4.000000
41.000000, 0.000000, 4363.076660, 4235.384277, 3954.871582, 4008.717773, 4151.281738, 0.000000, 8139.000000, 8351.000000, 0.000000, 0.000000, 0.000000, 3.000000, 159.900024, 1557656114.541290, 4.000000, 4.000000, 2.000000, 4.000000, 4.000000
42.000000, 0.000000, 4367.179199, 4234.871582, 3954.358887, 4009.230713, 4159.487305, 0.000000, 8143.000000, 8359.000000, 0.000000, 0.000000, 0.000000, 3.000000, 167.900024, 1557656114.549290, 4.000000, 4.000000, 2.000000, 4.000000, 4.000000
43.000000, 0.000000, 4359.487305, 4222.563965, 3981.538330, 4028.205078, 4163.589844, 0.000000, 8144.000000, 8355.000000, 0.000000, 0.000000, 0.000000, 3.000000, 175.900024, 1557656114.557290, 4.000000, 4.000000, 2.000000, 4.000000, 4.000000
44.000000, 0.000000, 4357.435547, 4223.589844, 3955.384521, 4028.205078, 4156.410156, 0.000000, 8144.000000, 8349.000000, 0.000000, 0.000000, 0.000000, 3.000000, 183.700012, 1557656114.565090, 4.000000, 4.000000, 2.000000, 4.000000, 4.000000
45.000000, 0.000000, 4371.794922, 4221.025391, 3970.256348, 4035.897217, 4157.436035, 0.000000, 8147.000000, 8352.000000, 0.000000, 0.000000, 0.000000, 3.000000, 191.500000, 1557656114.572890, 4.000000, 4.000000, 2.000000, 4.000000, 4.000000
46.000000, 0.000000, 4368.717773, 4202.051270, 3954.358887, 4055.384521, 4167.692383, 0.000000, 8151.000000, 8346.000000, 0.000000, 0.000000, 0.000000, 3.000000, 199.200012, 1557656114.580590, 4.000000, 4.000000, 2.000000, 4.000000, 4.000000
47.000000, 0.000000, 4362.051270, 4214.358887, 3958.461426, 4053.845947, 4171.281738, 0.000000, 8153.000000, 8345.000000, 0.000000, 0.000000, 0.000000, 3.000000, 207.000000, 1557656114.588390, 4.000000, 4.000000, 2.000000, 4.000000, 4.000000
48.000000, 0.000000, 4374.358887, 4252.820313, 3986.666504, 4052.307617, 4172.820313, 0.000000, 8147.000000, 8352.000000, 0.000000, 0.000000, 0.000000, 3.000000, 215.000000, 1557656114.596390, 4.000000, 4.000000, 2.000000, 4.000000, 4.000000
49.000000, 0.000000, 4372.820313, 4242.563965, 3947.179443, 4057.435791, 4171.281738, 0.000000, 8148.000000, 8352.000000, 0.000000, 0.000000, 0.000000, 3.000000, 223.000000, 1557656114.604390, 4.000000, 4.000000, 2.000000, 4.000000, 4.000000
50.000000, 0.000000, 4359.487305, 4201.538574, 3958.974365, 4044.102539, 4165.641113, 0.000000, 8156.000000, 8344.000000, 0.000000, 0.000000, 0.000000, 3.000000, 230.900024, 1557656114.612290, 4.000000, 4.000000, 2.000000, 4.000000, 4.000000
51.000000, 0.000000, 4365.127930, 4206.153809, 3958.461426, 4021.025635, 4168.717773, 0.000000, 8153.000000, 8341.000000, 0.000000, 0.000000, 0.000000, 3.000000, 238.799988, 1557656114.620190, 4.000000, 4.000000, 2.000000, 4.000000, 4.000000
52.000000, 0.000000, 4376.410156, 4232.820313, 3951.794678, 4005.128174, 4192.307617, 0.000000, 8153.000000, 8350.000000, 0.000000, 0.000000, 0.000000, 3.000000, 246.799988, 1557656114.628190, 4.000000, 4.000000, 2.000000, 4.000000, 4.000000
53.000000, 0.000000, 4372.820313, 4223.589844, 3977.435791, 4002.051270, 4223.589844, 0.000000, 8152.000000, 8347.000000, 0.000000, 0.000000, 0.000000, 3.000000, 254.599976, 1557656114.635990, 4.000000, 4.000000, 2.000000, 4.000000, 4.000000
54.000000, 0.000000, 4349.743652, 4199.487305, 3948.205078, 4013.845947, 4230.769043, 0.000000, 8151.000000, 8335.000000, 0.000000, 0.000000, 0.000000, 3.000000, 262.400024, 1557656114.643790, 4.000000, 4.000000, 2.000000, 4.000000, 4.000000
55.000000, 0.000000, 4342.563965, 4210.769043, 3964.102539, 4028.205078, 4232.820313, 0.000000, 8151.000000, 8345.000000, 0.000000, 0.000000, 0.000000, 3.000000, 270.200012, 1557656114.651590, 4.000000, 4.000000, 2.000000, 4.000000, 4.000000
56.000000, 0.000000, 4366.666504, 4238.461426, 3974.358887, 4043.076904, 4255.897461, 0.000000, 8156.000000, 8348.000000, 0.000000, 0.000000, 0.000000, 3.000000, 277.900024, 1557656114.659290, 4.000000, 4.000000, 2.000000, 4.000000, 4.000000
57.000000, 0.000000, 4379.487305, 4238.974121, 3972.307617, 4060.512695, 4286.153809, 0.000000, 8150.000000, 8341.000000, 0.000000, 0.000000, 0.000000, 3.000000, 285.799988, 1557656114.667190, 4.000000, 4.000000, 2.000000, 4.000000, 4.000000
58.000000, 0.000000, 4372.307617, 4218.974121, 3996.410156, 4042.051270, 4284.615234, 0.000000, 8152.000000, 8343.000000, 0.000000, 0.000000, 0.000000, 3.000000, 293.799988, 1557656114.675190, 4.000000, 4.000000, 2.000000, 4.000000, 4.000000
59.000000, 0.000000, 4375.384277, 4212.307617, 3960.000000, 4004.102539, 4251.281738, 0.000000, 8151.000000, 8347.000000, 0.000000, 0.000000, 0.000000, 3.000000, 301.799988, 1557656114.683190, 4.000000, 4.000000, 2.000000, 4.000000, 4.000000
60.000000, 0.000000, 4389.230469, 4219.487305, 3974.358887, 4022.051270, 4248.717773, 0.000000, 8144.000000, 8351.000000, 0.000000, 0.000000, 0.000000, 3.000000, 309.799988, 1557656114.691190, 4.000000, 4.000000, 2.000000, 4.000000, 4.000000
61.000000, 0.000000, 4382.563965, 4215.897461, 3980.512695, 4042.563965, 4278.974121, 0.000000, 8140.000000, 8356.000000, 0.000000, 0.000000, 0.000000, 3.000000, 317.500000, 1557656114.698890, 4.000000, 4.000000, 2.000000, 4.000000, 4.000000
62.000000, 0.000000, 4356.410156, 4206.153809, 3947.179443, 4010.256348, 4283.076660, 0.000000, 8144.000000, 8363.000000, 0.000000, 0.000000, 0.000000, 3.000000, 325.299988, 1557656114.706690, 4.000000, 4.000000, 2.000000, 4.000000, 4.000000
63.000000, 0.000000, 4353.333008, 4219.487305, 3972.820313, 4010.769043, 4270.769043, 0.000000, 8141.000000, 8354.000000, 0.000000, 0.000000, 0.000000, 3.000000, 333.099976, 1557656114.714490, 4.000000, 4.000000, 2.000000, 4.000000, 4.000000
64.000000, 0.000000, 4370.256348, 4236.410156, 3959.487061, 4037.435791, 4264.102539, 500.000000, 8147.000000, 8358.000000, 0.000000, 0.000000, 0.000000, 3.000000, 341.000000, 1557656114.722390, 4.000000, 4.000000, 2.000000, 4.000000, 4.000000
65.000000, 0.000000, 4365.127930, 4222.563965, 3962.563965, 4023.076904, 4238.461426, 500.000000, 8140.000000, 8370.000000, 0.000000, 0.000000, 0.000000, 3.000000, 348.900024, 1557656114.730290, 4.000000, 4.000000, 2.000000, 4.000000, 4.000000
66.000000, 0.000000, 4329.230469, 4201.538574, 3966.666504, 4022.051270, 4180.512695, 16195.000000, 8143.000000, 8365.000000, 0.000000, 0.000000, 0.000000, 3.000000, 356.799988, 1557656114.738190, 4.000000, 4.000000, 2.000000, 4.000000, 4.000000
67.000000, 0.000000, 4307.179199, 4201.538574, 3945.640869, 4058.461426, 4121.025391, 500.000000, 8146.000000, 8356.000000, 0.000000, 0.000000, 0.000000, 3.000000, 364.799988, 1557656114.746190, 4.000000, 4.000000, 2.000000, 4.000000, 4.000000
68.000000, 0.000000, 4309.230469, 4191.794922, 3967.692139, 4051.794678, 4080.512695, 16105.000000, 8144.000000, 8356.000000, 0.000000, 0.000000, 0.000000, 3.000000, 372.799988, 1557656114.754190, 4.000000, 4.000000, 2.000000, 4.000000, 4.000000
69.000000, 0.000000, 4307.179199, 4176.410156, 3948.205078, 4026.153809, 4049.743408, 500.000000, 8143.000000, 8364.000000, 0.000000, 0.000000, 0.000000, 3.000000, 380.799988, 1557656114.762190, 4.000000, 4.000000, 2.000000, 4.000000, 4.000000
70.000000, 0.000000, 4299.487305, 4196.410156, 3969.230713, 4063.589600, 4018.461426, 254.000000, 8146.000000, 8359.000000, 0.000000, 0.000000, 0.000000, 3.000000, 388.600000, 1557656114.769990, 4.000000, 4.000000, 2.000000, 4.000000, 4.000000
71.000000, 0.000000, 4289.230469, 4207.179199, 3990.769043, 4084.102539, 4014.871582, 500.000000, 8142.000000, 8354.000000, 0.000000, 0.000000, 0.000000, 3.000000, 396.400000, 1557656114.777790, 4.000000, 4.000000, 2.000000, 4.000000, 4.000000
72.000000, 0.000000, 4281.025391, 4182.051270, 3950.256348, 4021.025635, 4066.666504, 500.000000, 8151.000000, 8357.000000, 0.000000, 0.000000, 0.000000, 3.000000, 404.100000, 1557656114.785490, 4.000000, 4.000000, 2.000000, 4.000000, 4.000000
73.000000, 0.000000, 4295.897461, 4193.333008, 3978.461426, 3986.153809, 4128.205078, 16154.000000, 8147.000000, 8359.000000, 0.000000, 0.000000, 0.000000, 3.000000, 411.900000, 1557656114.793290, 4.000000, 4.000000, 2.000000, 4.000000, 4.000000
74.000000, 0.000000, 4319.487305, 4231.794922, 3976.410156, 4014.358887, 4135.384277, 500.000000, 8150.000000, 8362.000000, 0.000000, 0.000000, 0.000000, 3.000000, 419.900002, 1557656114.801290, 4.000000, 4.000000, 2.000000, 4.000000, 4.000000
75.000000, 0.000000, 4312.820313, 4214.871582, 3960.000000, 3994.871582, 4113.333008, 16175.000000, 8154.000000, 8358.000000, 0.000000, 0.000000, 0.000000, 3.000000, 427.900002, 1557656114.809290, 4.000000, 4.000000, 2.000000, 4.000000, 4.000000
76.000000, 0.000000, 4293.846191, 4180.512695, 3963.589600, 3940.512695, 4111.281738, 500.000000, 8151.000000, 8347.000000, 0.000000, 0.000000, 0.000000, 3.000000, 435.900002, 1557656114.817290, 4.000000, 4.000000, 2.000000, 4.000000, 4.000000
77.000000, 0.000000, 4304.102539, 4198.461426, 3945.128174, 3952.307617, 4122.563965, 500.000000, 8158.000000, 8338.000000, 0.000000, 0.000000, 0.000000, 3.000000, 443.599998, 1557656114.824990, 4.000000, 4.000000, 2.000000, 4.000000, 4.000000
78.000000, 0.000000, 4329.743652, 4229.743652, 3977.435791, 3981.538330, 4110.256348, 450.000000, 8158.000000, 8350.000000, 0.000000, 0.000000, 0.000000, 3.000000, 451.400002, 1557656114.832790, 4.000000, 4.000000, 2.000000, 4.000000, 4.000000
79.000000, 0.000000, 4332.820313, 4223.589844, 3958.461426, 3957.948730, 4073.845947, 16175.000000, 8150.000000, 8351.000000, 0.000000, 0.000000, 0.000000, 3.000000, 459.199997, 1557656114.840590, 4.000000, 4.000000, 2.000000, 4.000000, 4.000000
80.000000, 0.000000, 4317.436035, 4200.000000, 3939.487061, 3933.845947, 4047.692139, 450.000000, 8154.000000, 8340.000000, 0.000000, 0.000000, 0.000000, 3.000000, 467.000000, 1557656114.848390, 4.000000, 4.000000, 2.000000, 4.000000, 4.000000
81.000000, 0.000000, 4323.076660, 4206.153809, 3967.692139, 3951.794678, 4047.692139, 450.000000, 8151.000000, 8335.000000, 0.000000, 0.000000, 0.000000, 3.000000, 474.900002, 1557656114.856290, 4.000000, 4.000000, 2.000000, 4.000000, 4.000000
82.000000, 0.000000, 4343.076660, 4218.974121, 3946.153809, 3979.487061, 4050.769043, 450.000000, 8151.000000, 8343.000000, 0.000000, 0.000000, 0.000000, 3.000000, 482.800003, 1557656114.864190, 4.000000, 4.000000, 2.000000, 4.000000, 4.000000
83.000000, 0.000000, 4340.000000, 4202.051270, 3962.563965, 3982.563965, 4039.487061, 16175.000000, 8144.000000, 8342.000000, 0.000000, 0.000000, 0.000000, 3.000000, 490.800003, 1557656114.872190, 4.000000, 4.000000, 2.000000, 4.000000, 4.000000
84.000000, 0.000000, 4316.922852, 4193.333008, 3953.333252, 3972.820313, 4011.794678, 450.000000, 8145.000000, 8331.000000, 0.000000, 0.000000, 0.000000, 3.000000, 498.800003, 1557656114.880190, 4.000000, 4.000000, 2.000000, 4.000000, 4.000000
85.000000, 0.000000, 4309.230469, 4213.333008, 3943.589600, 3982.563965, 4007.179443, 450.000000, 8138.000000, 8332.000000, 0.000000, 0.000000, 0.000000, 3.000000, 506.800003, 1557656114.888190, 4.000000, 4.000000, 2.000000, 4.000000, 4.000000
86.000000, 0.000000, 4316.410156, 4214.871582, 3981.538330, 4007.179443, 4020.000000, 450.000000, 8144.000000, 8327.000000, 0.000000, 0.000000, 0.000000, 3.000000, 514.600006, 1557656114.895990, 4.000000, 4.000000, 2.000000, 4.000000, 4.000000
87.000000, 0.000000, 4314.871582, 4195.897461, 3948.717773, 4007.179443, 3990.256348, 16175.000000, 8140.000000, 8329.000000, 0.000000, 0.000000, 0.000000, 3.000000, 522.300003, 1557656114.903690, 4.000000, 4.000000, 2.000000, 4.000000, 4.000000
88.000000, 0.000000, 4323.589844, 4214.358887, 3951.794678, 4018.461426, 3953.845947, 450.000000, 8139.000000, 8328.000000, 0.000000, 0.000000, 0.000000, 3.000000, 530.100006, 1557656114.911490, 4.000000, 4.000000, 2.000000, 4.000000, 4.000000
89.000000, 0.000000, 4332.307617, 4235.897461, 3970.769043, 4070.769043, 3966.153809, 450.000000, 8136.000000, 8322.000000, 0.000000, 0.000000, 0.000000, 3.000000, 538.000000, 1557656114.919390, 4.000000, 4.000000, 2.000000, 4.000000, 4.000000
90.000000, 0.000000, 4321.025391, 4211.794922, 3967.692139, 4110.256348, 3984.102539, 450.000000, 8145.000000, 8326.000000, 0.000000, 0.000000, 0.000000, 3.000000, 545.899994, 1557656114.927290, 4.000000, 4.000000, 2.000000, 4.000000, 4.000000
91.000000, 0.000000, 4325.641113, 4205.127930, 3986.666504, 4125.127930, 3975.897217, 16175.000000, 8137.000000, 8337.000000, 0.000000, 0.000000, 0.000000, 3.000000, 553.899994, 1557656114.935290, 4.000000, 4.000000, 2.000000, 4.000000, 4.000000
92.000000, 0.000000, 4341.025391, 4235.897461, 3968.717773, 4134.358887, 3962.051270, 450.000000, 8134.000000, 8323.000000, 0.000000, 0.000000, 0.000000, 3.000000, 561.800003, 1557656114.943190, 4.000000, 4.000000, 2.000000, 4.000000, 4.000000
93.000000, 0.000000, 4332.307617, 4249.230469, 3994.871582, 4131.281738, 3951.794678, 450.000000, 8137.000000, 8314.000000, 0.000000, 0.000000, 0.000000, 3.000000, 569.800003, 1557656114.951190, 4.000000, 4.000000, 2.000000, 4.000000, 4.000000
94.000000, 0.000000, 4318.461426, 4228.717773, 3989.743408, 4100.512695, 3930.256348, 450.000000, 8135.000000, 8313.000000, 0.000000, 0.000000, 0.000000, 3.000000, 577.800003, 1557656114.959190, 4.000000, 4.000000, 2.000000, 4.000000, 4.000000
95.000000, 0.000000, 4325.127930, 4216.922852, 3950.256348, 4078.974365, 3903.589600, 16175.000000, 8131.000000, 8323.000000, 0.000000, 0.000000, 0.000000, 3.000000, 585.600006, 1557656114.966990, 4.000000, 4.000000, 2.000000, 4.000000, 4.000000
96.000000, 0.000000, 4334.358887, 4229.230469, 3978.974365, 4084.615234, 3891.281982, 450.000000, 8136.000000, 8324.000000, 0.000000, 0.000000, 0.000000, 3.000000, 593.399994, 1557656114.974790, 4.000000, 4.000000, 2.000000, 4.000000, 4.000000
97.000000, 0.000000, 4335.897461, 4232.820313, 3958.461426, 4069.230713, 3887.179443, 450.000000, 8135.000000, 8312.000000, 0.000000, 0.000000, 0.000000, 3.000000, 601.100006, 1557656114.982490, 4.000000, 4.000000, 2.000000, 4.000000, 4.000000
98.000000, 0.000000, 4336.922852, 4229.743652, 3968.717773, 4059.487061, 3888.205078, 450.000000, 8130.000000, 8311.000000, 0.000000, 0.000000, 0.000000, 3.000000, 608.899994, 1557656114.990290, 4.000000, 4.000000, 2.000000, 4.000000, 4.000000
99.000000, 0.000000, 4330.769043, 4232.820313, 3993.333252, 4070.769043, 3890.256348, 16175.000000, 8134.000000, 8316.000000, 0.000000, 0.000000, 0.000000, 3.000000, 616.899994, 1557656114.998290, 4.000000, 4.000000, 2.000000, 4.000000, 4.000000
100.000000, 0.000000, 4317.436035, 4230.769043, 3968.717773, 4050.769043, 3889.230713, 450.000000, 8129.000000, 8313.000000, 0.000000, 0.000000, 0.000000, 3.000000, 624.899994, 1557656115.006290, 4.000000, 4.000000, 2.000000, 4.000000, 4.000000
101.000000, 0.000000, 4323.076660, 4229.230469, 3991.794678, 4012.820313, 3891.281982, 450.000000, 8137.000000, 8321.000000, 0.000000, 0.000000, 0.000000, 3.000000, 632.899994, 1557656115.014290, 4.000000, 4.000000, 2.000000, 4.000000, 4.000000
102.000000, 0.000000, 4341.025391, 4244.102539, 3977.948730, 4001.025635, 3888.717773, 450.000000, 8140.000000, 8314.000000, 0.000000, 0.000000, 0.000000, 3.000000, 640.799988, 1557656115.022190, 4.000000, 4.000000, 2.000000, 4.000000, 4.000000
103.000000, 0.000000, 4330.256348, 4253.333008, 3977.435791, 4003.076904, 3877.948730, 16175.000000, 8142.000000, 8321.000000, 0.000000, 0.000000, 0.000000, 3.000000, 648.600006, 1557656115.029990, 4.000000, 4.000000, 2.000000, 4.000000, 4.000000
104.000000, 0.000000, 4309.230469, 4244.615234, 3985.640869, 3997.435791, 3863.076904, 450.000000, 8133.000000, 8324.000000, 0.000000, 0.000000, 0.000000, 3.000000, 656.399994, 1557656115.037790, 4.000000, 4.000000, 2.000000, 4.000000, 4.000000
105.000000, 0.000000, 4322.563965, 4238.461426, 3949.230713, 3994.358887, 3855.384521, 450.000000, 8138.000000, 8332.000000, 0.000000, 0.000000, 0.000000, 3.000000, 664.200012, 1557656115.045590, 4.000000, 4.000000, 2.000000, 4.000000, 4.000000
106.000000, 0.000000, 4337.948730, 4240.512695, 3977.948730, 3984.615234, 3857.435791, 450.000000, 8141.000000, 8327.000000, 0.000000, 0.000000, 0.000000, 3.000000, 672.000000, 1557656115.053390, 4.000000, 4.000000, 2.000000, 4.000000, 4.000000
107.000000, 0.000000, 4323.589844, 4250.769043, 3972.820313, 3981.538330, 3852.820313, 16175.000000, 8136.000000, 8332.000000, 0.000000, 0.000000, 0.000000, 3.000000, 679.899994, 1557656115.061290, 4.000000, 4.000000, 2.000000, 4.000000, 4.000000
108.000000, 0.000000, 4321.025391, 4266.153809, 3965.640869, 4014.871582, 3848.205078, 450.000000, 8141.000000, 8342.000000, 0.000000, 0.000000, 0.000000, 3.000000, 687.899994, 1557656115.069290, 4.000000, 4.000000, 2.000000, 4.000000, 4.000000
109.000000, 0.000000, 4333.333008, 4270.256348, 3990.769043, 4035.384521, 3857.948730, 450.000000, 8144.000000, 8345.000000, 0.000000, 0.000000, 0.000000, 3.000000, 695.899994, 1557656115.077290, 4.000000, 4.000000, 2.000000, 4.000000, 4.000000
110.000000, 0.000000, 4332.307617, 4260.000000, 3972.820313, 4018.974365, 3860.512695, 450.000000, 8143.000000, 8341.000000, 0.000000, 0.000000, 0.000000, 3.000000, 703.899994, 1557656115.085290, 4.000000, 4.000000, 2.000000, 4.000000, 4.000000
111.000000, 0.000000, 4334.358887, 4252.820313, 3984.102539, 4010.769043, 3837.435791, 16175.000000, 8145.000000, 8341.000000, 0.000000, 0.000000, 0.000000, 3.000000, 711.700012, 1557656115.093090, 4.000000, 4.000000, 2.000000, 4.000000, 4.000000
112.000000, 0.000000, 4329.230469, 4258.461426, 3958.974365, 3998.461426, 3801.025635, 450.000000, 8146.000000, 8351.000000, 0.000000, 0.000000, 0.000000, 3.000000, 719.399994, 1557656115.100790, 4.000000, 4.000000, 2.000000, 4.000000, 4.000000
113.000000, 0.000000, 4309.743652, 4274.871582, 3946.666504, 3979.487061, 3778.974365, 450.000000, 8147.000000, 8358.000000, 0.000000, 0.000000, 0.000000, 3.000000, 727.200012, 1557656115.108590, 4.000000, 4.000000, 2.000000, 4.000000, 4.000000
114.000000, 0.000000, 4315.897461, 4277.436035, 3972.307617, 3993.845947, 3788.205078, 450.000000, 8143.000000, 8362.000000, 0.000000, 0.000000, 0.000000, 3.000000, 735.000000, 1557656115.116390, 4.000000, 4.000000, 2.000000, 4.000000, 4.000000
115.000000, 0.000000, 4323.589844, 4257.948730, 3937.435791, 3981.025635, 3802.563965, 16175.000000, 8151.000000, 8363.000000, 0.000000, 0.000000, 0.000000, 3.000000, 742.899994, 1557656115.124290, 4.000000, 4.000000, 2.000000, 4.000000, 4.000000
116.000000, 0.000000, 4299.487305, 4240.000000, 3955.384521, 3897.948730, 3800.000000, 450.000000, 8145.000000, 8357.000000, 0.000000, 0.000000, 0.000000, 3.000000, 750.899994, 1557656115.132290, 4.000000, 4.000000, 2.000000, 4.000000, 4.000000
117.000000, 0.000000, 4293.333008, 4231.281738, 3955.897461, 3833.845947, 3798.974365, 450.000000, 8139.000000, 8364.000000, 0.000000, 0.000000, 0.000000, 3.000000, 758.799988, 1557656115.140190, 4.000000, 4.000000, 2.000000, 4.000000, 4.000000
118.000000, 0.000000, 4315.384277, 4229.743652, 3931.794678, 3808.205078, 3812.307617, 450.000000, 8150.000000, 8367.000000, 0.000000, 0.000000, 0.000000, 3.000000, 766.799988, 1557656115.148190, 4.000000, 4.000000, 2.000000, 4.000000, 4.000000
119.000000, 0.000000, 4321.025391, 4239.487305, 3957.435791, 3771.794678, 3820.000000, 16175.000000, 8147.000000, 8365.000000, 0.000000, 0.000000, 0.000000, 3.000000, 774.600006, 1557656115.155990, 4.000000, 4.000000, 2.000000, 4.000000, 4.000000
120.000000, 0.000000, 4314.358887, 4253.846191, 3946.153809, 3749.230713, 3820.000000, 450.000000, 8144.000000, 8359.000000, 0.000000, 0.000000, 0.000000, 3.000000, 782.399994, 1557656115.163790, 4.000000, 4.000000, 2.000000, 4.000000, 4.000000
121.000000, 0.000000, 4319.487305, 4251.794922, 3966.153809, 3763.589600, 3826.666504, 450.000000, 8142.000000, 8360.000000, 0.000000, 0.000000, 0.000000, 3.000000, 790.399994, 1557656115.171790, 4.000000, 4.000000, 2.000000, 4.000000, 4.000000
122.000000, 0.000000, 4318.461426, 4231.281738, 3963.589600, 3761.538330, 3824.102539, 450.000000, 8145.000000, 8369.000000, 0.000000, 0.000000, 0.000000, 3.000000, 798.200012, 1557656115.179590, 4.000000, 4.000000, 2.000000, 4.000000, 4.000000
123.000000, 0.000000, 4317.436035, 4222.051270, 3941.538330, 3745.640869, 3820.000000, 16175.000000, 8140.000000, 8360.000000, 0.000000, 0.000000, 0.000000, 3.000000, 806.100006, 1557656115.187490, 4.000000, 4.000000, 2.000000, 4.000000, 4.000000
124.000000, 0.000000, 4335.897461, 4232.820313, 3977.435791, 3754.871582, 3840.512695, 450.000000, 8144.000000, 8351.000000, 0.000000, 0.000000, 0.000000, 3.000000, 814.000000, 1557656115.195390, 4.000000, 4.000000, 2.000000, 4.000000, 4.000000
125.000000, 0.000000, 4350.769043, 4242.051270, 3953.845947, 3750.769043, 3856.410156, 450.000000, 8144.000000, 8357.000000, 0.000000, 0.000000, 0.000000, 3.000000, 822.000000, 1557656115.203390, 4.000000, 4.000000, 2.000000, 4.000000, 4.000000
126.000000, 0.000000, 4347.179199, 4244.102539, 3952.820313, 3737.435791, 3856.923096, 450.000000, 8139.000000, 8356.000000, 0.000000, 0.000000, 0.000000, 3.000000, 830.000000, 1557656115.211390, 4.000000, 4.000000, 2.000000, 4.000000, 4.000000
127.000000, 0.000000, 4341.025391, 4243.589844, 3959.487061, 3741.025635, 3856.923096, 16175.000000, 8146.000000, 8352.000000, 0.000000, 0.000000, 0.000000, 3.000000, 838.000000, 1557656115.219390, 4.000000, 4.000000, 2.000000, 4.000000, 4.000000
128.000000, 0.000000, 4341.025391, 4231.794922, 3936.410156, 3736.410156, 3852.820313, 500.000000, 8139.000000, 8351.000000, 0.000000, 0.000000, 0.000000, 3.000000, 845.700012, 1557656115.227090, 4.000000, 4.000000, 2.000000, 4.000000, 4.000000
0.000000, 0.000000, 4341.025391, 4226.153809, 3968.205078, 3745.640869, 3849.230713, 500.000000, 8140.000000, 8349.000000, 0.000000, 0.000000, 0.000000, 3.000000, 853.500000, 1557656115.234890, 4.000000, 4.000000, 2.000000, 4.000000, 4.000000
1.000000, 0.000000, 4343.076660, 4235.384277, 3956.923096, 3767.179443, 3849.230713, 500.000000, 8142.000000, 8347.000000, 0.000000, 0.000000, 0.000000, 3.000000, 861.299988, 1557656115.242690, 4.000000, 4.000000, 2.000000, 4.000000, 4.000000
