title:Bhavan happy 1, recorded:12.05.19 12.56.02, timestamp started:2019-05-12T12:56:02.755373+05:30, sampling:128, subject:, labels:COUNTER INTERPOLATED AF3 T7 Pz T8 AF4 RAW_CQ GYROX GYROY MARKER MARKER_HARDWARE SYNC TIME_STAMP_s TIME_STAMP_ms TimeStamp CQ_AF3 CQ_T7 CQ_Pz CQ_T8 CQ_AF4, chan:20, samples:15393, units:emotiv
63.000000, 0.000000, 4094.871582, 4206.153809, 3596.923096, 3868.205078, 3896.923096, 0.000000, 8182.000000, 8365.000000, 1.000000, 3.000000, 0.000000, 0.000000, 0.000000, 1557645962.755374, 4.000000, 4.000000, 4.000000, 4.000000, 4.000000
64.000000, 0.000000, 4150.256348, 4217.436035, 3647.179443, 3992.307617, 3951.794678, 500.000000, 8182.000000, 8378.000000, 0.000000, 0.000000, 0.000000, 0.000000, 7.799988, 1557645962.763174, 4.000000, 4.000000, 4.000000, 4.000000, 4.000000
65.000000, 0.000000, 4261.538574, 4345.641113, 3746.153809, 4064.102539, 4050.256348, 500.000000, 8175.000000, 8371.000000, 0.000000, 0.000000, 0.000000, 0.000000, 15.600006, 1557645962.770974, 4.000000, 4.000000, 4.000000, 4.000000, 4.000000
66.000000, 0.000000, 4227.179199, 4355.897461, 3740.000000, 3995.384521, 3998.974365, 16186.000000, 8173.000000, 8367.000000, 0.000000, 0.000000, 0.000000, 0.000000, 23.299988, 1557645962.778674, 4.000000, 4.000000, 4.000000, 4.000000, 4.000000
67.000000, 0.000000, 4153.333008, 4254.871582, 3680.512695, 3994.358887, 3920.512695, 500.000000, 8161.000000, 8351.000000, 0.000000, 0.000000, 0.000000, 0.000000, 31.100006, 1557645962.786474, 4.000000, 4.000000, 4.000000, 4.000000, 4.000000
68.000000, 0.000000, 4177.436035, 4255.897461, 3695.897461, 4013.333252, 3954.871582, 16139.000000, 8165.000000, 8349.000000, 0.000000, 0.000000, 0.000000, 0.000000, 38.899994, 1557645962.794274, 4.000000, 4.000000, 4.000000, 4.000000, 4.000000
69.000000, 0.000000, 4191.794922, 4286.666504, 3712.820313, 3982.051270, 3974.358887, 500.000000, 8160.000000, 8348.000000, 0.000000, 0.000000, 0.000000, 0.000000, 46.700012, 1557645962.802074, 4.000000, 4.000000, 4.000000, 4.000000, 4.000000
70.000000, 0.000000, 4155.384277, 4256.410156, 3677.948730, 3955.897461, 3930.256348, 16149.000000, 8152.000000, 8342.000000, 0.000000, 0.000000, 0.000000, 0.000000, 54.500000, 1557645962.809874, 4.000000, 4.000000, 4.000000, 4.000000, 4.000000
71.000000, 0.000000, 4177.436035, 4280.512695, 3698.461426, 3955.897461, 3949.230713, 500.000000, 8148.000000, 8335.000000, 0.000000, 0.000000, 0.000000, 0.000000, 62.200012, 1557645962.817574, 4.000000, 4.000000, 4.000000, 4.000000, 4.000000
72.000000, 0.000000, 4213.846191, 4327.692383, 3740.000000, 3970.769043, 3987.179443, 500.000000, 8143.000000, 8340.000000, 0.000000, 0.000000, 0.000000, 0.000000, 70.000000, 1557645962.825374, 4.000000, 4.000000, 4.000000, 4.000000, 4.000000
73.000000, 0.000000, 4190.769043, 4297.436035, 3719.487061, 3977.948730, 3962.051270, 16131.000000, 8140.000000, 8349.000000, 0.000000, 0.000000, 0.000000, 0.000000, 77.799988, 1557645962.833174, 4.000000, 4.000000, 4.000000, 4.000000, 4.000000
74.000000, 0.000000, 4176.410156, 4272.307617, 3703.589600, 3996.923096, 3951.281982, 500.000000, 8133.000000, 8352.000000, 0.000000, 0.000000, 0.000000, 0.000000, 85.600006, 1557645962.840974, 4.000000, 4.000000, 4.000000, 4.000000, 4.000000
75.000000, 0.000000, 4206.153809, 4296.410156, 3724.615234, 4013.333252, 3976.410156, 16171.000000, 8132.000000, 8343.000000, 0.000000, 0.000000, 0.000000, 0.000000, 93.299988, 1557645962.848674, 4.000000, 4.000000, 4.000000, 4.000000, 4.000000
76.000000, 0.000000, 4248.717773, 4308.205078, 3740.000000, 4024.102539, 4006.153809, 500.000000, 8128.000000, 8350.000000, 0.000000, 0.000000, 0.000000, 0.000000, 101.100006, 1557645962.856474, 4.000000, 4.000000, 4.000000, 4.000000, 4.000000
77.000000, 0.000000, 4250.769043, 4320.000000, 3731.281982, 4000.000000, 4014.871582, 500.000000, 8124.000000, 8368.000000, 0.000000, 0.000000, 0.000000, 0.000000, 108.899994, 1557645962.864274, 4.000000, 4.000000, 4.000000, 4.000000, 4.000000
78.000000, 0.000000, 4203.076660, 4311.281738, 3710.256348, 3961.025635, 3980.000000, 450.000000, 8119.000000, 8381.000000, 0.000000, 0.000000, 0.000000, 0.000000, 116.700012, 1557645962.872074, 4.000000, 4.000000, 4.000000, 4.000000, 4.000000
79.000000, 0.000000, 4195.897461, 4285.127930, 3719.487061, 3970.256348, 3967.179443, 16171.000000, 8119.000000, 8374.000000, 0.000000, 0.000000, 0.000000, 0.000000, 124.500000, 1557645962.879874, 4.000000, 4.000000, 4.000000, 4.000000, 4.000000
80.000000, 0.000000, 4261.025391, 4327.692383, 3770.256348, 4037.948730, 4012.820313, 450.000000, 8110.000000, 8384.000000, 0.000000, 0.000000, 0.000000, 0.000000, 132.200012, 1557645962.887574, 4.000000, 4.000000, 4.000000, 4.000000, 4.000000
81.000000, 0.000000, 4261.538574, 4344.102539, 3760.000000, 4034.358887, 4009.230713, 450.000000, 8117.000000, 8392.000000, 0.000000, 0.000000, 0.000000, 0.000000, 140.000000, 1557645962.895374, 4.000000, 4.000000, 4.000000, 4.000000, 4.000000
82.000000, 0.000000, 4203.589844, 4296.922852, 3710.256348, 3925.128174, 3966.666504, 450.000000, 8115.000000, 8393.000000, 0.000000, 0.000000, 0.000000, 0.000000, 147.799988, 1557645962.903174, 4.000000, 4.000000, 4.000000, 4.000000, 4.000000
83.000000, 0.000000, 4216.410156, 4300.512695, 3735.897461, 3937.435791, 3985.128174, 16171.000000, 8113.000000, 8399.000000, 0.000000, 0.000000, 0.000000, 0.000000, 155.600006, 1557645962.910974, 4.000000, 4.000000, 4.000000, 4.000000, 4.000000
84.000000, 0.000000, 4244.102539, 4307.692383, 3765.128174, 4052.307617, 4006.153809, 450.000000, 8122.000000, 8400.000000, 0.000000, 0.000000, 0.000000, 0.000000, 163.299988, 1557645962.918674, 4.000000, 4.000000, 4.000000, 4.000000, 4.000000
85.000000, 0.000000, 4200.000000, 4246.666504, 3722.563965, 3988.205078, 3975.384521, 450.000000, 8129.000000, 8399.000000, 0.000000, 0.000000, 0.000000, 0.000000, 171.100006, 1557645962.926474, 4.000000, 4.000000, 4.000000, 4.000000, 4.000000
86.000000, 0.000000, 4214.358887, 4291.281738, 3752.307617, 3896.923096, 4004.102539, 450.000000, 8122.000000, 8404.000000, 0.000000, 0.000000, 0.000000, 0.000000, 178.900024, 1557645962.934274, 4.000000, 4.000000, 4.000000, 4.000000, 4.000000
87.000000, 0.000000, 4301.538574, 4408.717773, 3841.025635, 4020.512695, 4069.230713, 16171.000000, 8140.000000, 8408.000000, 0.000000, 0.000000, 0.000000, 0.000000, 186.700012, 1557645962.942074, 4.000000, 4.000000, 4.000000, 4.000000, 4.000000
88.000000, 0.000000, 4267.179199, 4309.743652, 3790.256348, 4077.948730, 4018.974365, 450.000000, 8146.000000, 8401.000000, 0.000000, 0.000000, 0.000000, 0.000000, 194.500000, 1557645962.949874, 4.000000, 4.000000, 4.000000, 4.000000, 4.000000
89.000000, 0.000000, 4175.897461, 4161.538574, 3696.410156, 3941.025635, 3940.512695, 450.000000, 8160.000000, 8404.000000, 0.000000, 0.000000, 0.000000, 0.000000, 202.200012, 1557645962.957574, 4.000000, 4.000000, 4.000000, 4.000000, 4.000000
90.000000, 0.000000, 4218.974121, 4241.025391, 3738.974365, 3936.923096, 3984.615234, 450.000000, 8158.000000, 8411.000000, 0.000000, 0.000000, 0.000000, 0.000000, 210.200012, 1557645962.965574, 4.000000, 4.000000, 4.000000, 4.000000, 4.000000
91.000000, 0.000000, 4308.205078, 4366.666504, 3821.538330, 4029.743408, 4054.871582, 16171.000000, 8176.000000, 8413.000000, 0.000000, 0.000000, 0.000000, 0.000000, 218.200012, 1557645962.973574, 4.000000, 4.000000, 4.000000, 4.000000, 4.000000
92.000000, 0.000000, 4292.307617, 4350.256348, 3806.666504, 3980.512695, 4034.871582, 450.000000, 8180.000000, 8400.000000, 0.000000, 0.000000, 0.000000, 0.000000, 226.200012, 1557645962.981574, 4.000000, 4.000000, 4.000000, 4.000000, 4.000000
93.000000, 0.000000, 4239.487305, 4270.769043, 3754.871582, 3928.205078, 3997.435791, 450.000000, 8190.000000, 8405.000000, 0.000000, 0.000000, 0.000000, 0.000000, 233.900024, 1557645962.989274, 4.000000, 4.000000, 4.000000, 4.000000, 4.000000
94.000000, 0.000000, 4242.051270, 4241.538574, 3763.076904, 4001.025635, 4000.000000, 450.000000, 8195.000000, 8419.000000, 0.000000, 0.000000, 0.000000, 0.000000, 241.700012, 1557645962.997074, 4.000000, 4.000000, 4.000000, 4.000000, 4.000000
95.000000, 0.000000, 4287.179199, 4312.820313, 3822.563965, 4048.717773, 4032.307617, 16171.000000, 8209.000000, 8412.000000, 0.000000, 0.000000, 0.000000, 0.000000, 249.500000, 1557645963.004874, 4.000000, 4.000000, 4.000000, 4.000000, 4.000000
96.000000, 0.000000, 4315.384277, 4372.820313, 3847.179443, 4002.563965, 4054.358887, 450.000000, 8209.000000, 8419.000000, 0.000000, 0.000000, 0.000000, 0.000000, 257.299988, 1557645963.012674, 4.000000, 4.000000, 4.000000, 4.000000, 4.000000
97.000000, 0.000000, 4277.436035, 4288.205078, 3788.205078, 3968.205078, 4017.948730, 450.000000, 8215.000000, 8428.000000, 0.000000, 0.000000, 0.000000, 0.000000, 265.200012, 1557645963.020574, 4.000000, 4.000000, 4.000000, 4.000000, 4.000000
98.000000, 0.000000, 4238.461426, 4208.717773, 3743.589600, 4010.256348, 3980.000000, 450.000000, 8216.000000, 8429.000000, 0.000000, 0.000000, 0.000000, 0.000000, 273.099976, 1557645963.028474, 4.000000, 4.000000, 4.000000, 4.000000, 4.000000
99.000000, 0.000000, 4293.333008, 4302.051270, 3803.589600, 4031.794678, 4020.000000, 16171.000000, 8215.000000, 8431.000000, 0.000000, 0.000000, 0.000000, 0.000000, 281.099976, 1557645963.036474, 4.000000, 4.000000, 4.000000, 4.000000, 4.000000
100.000000, 0.000000, 4375.384277, 4421.025391, 3882.563965, 4011.794678, 4076.410156, 450.000000, 8210.000000, 8439.000000, 0.000000, 0.000000, 0.000000, 0.000000, 289.099976, 1557645963.044474, 4.000000, 4.000000, 4.000000, 4.000000, 4.000000
101.000000, 0.000000, 4333.333008, 4344.102539, 3845.128174, 3993.845947, 4038.974365, 450.000000, 8214.000000, 8433.000000, 0.000000, 0.000000, 0.000000, 0.000000, 296.900024, 1557645963.052274, 4.000000, 4.000000, 4.000000, 4.000000, 4.000000
102.000000, 0.000000, 4230.256348, 4191.794922, 3753.333252, 3935.384521, 3964.102539, 450.000000, 8207.000000, 8440.000000, 0.000000, 0.000000, 0.000000, 0.000000, 304.599976, 1557645963.059974, 4.000000, 4.000000, 4.000000, 4.000000, 4.000000
103.000000, 0.000000, 4278.974121, 4260.000000, 3802.563965, 3947.179443, 4004.615234, 16171.000000, 8205.000000, 8454.000000, 0.000000, 0.000000, 0.000000, 0.000000, 312.400024, 1557645963.067774, 4.000000, 4.000000, 4.000000, 4.000000, 4.000000
104.000000, 0.000000, 4398.974121, 4425.641113, 3917.435791, 4062.563965, 4104.615234, 450.000000, 8200.000000, 8461.000000, 0.000000, 0.000000, 0.000000, 0.000000, 320.200012, 1557645963.075574, 4.000000, 4.000000, 4.000000, 4.000000, 4.000000
105.000000, 0.000000, 4346.153809, 4344.102539, 3860.512695, 4013.845947, 4073.333252, 450.000000, 8198.000000, 8447.000000, 0.000000, 0.000000, 0.000000, 0.000000, 328.200012, 1557645963.083574, 4.000000, 4.000000, 4.000000, 4.000000, 4.000000
106.000000, 0.000000, 4244.615234, 4199.487305, 3758.461426, 3892.820313, 3986.153809, 450.000000, 8191.000000, 8460.000000, 0.000000, 0.000000, 0.000000, 0.000000, 336.200012, 1557645963.091574, 4.000000, 4.000000, 4.000000, 4.000000, 4.000000
107.000000, 0.000000, 4286.666504, 4280.512695, 3804.102539, 3968.205078, 4006.153809, 16171.000000, 8186.000000, 8468.000000, 0.000000, 0.000000, 0.000000, 0.000000, 344.099976, 1557645963.099474, 4.000000, 4.000000, 4.000000, 4.000000, 4.000000
108.000000, 0.000000, 4320.512695, 4334.871582, 3834.358887, 4005.640869, 4030.769043, 450.000000, 8169.000000, 8482.000000, 0.000000, 0.000000, 0.000000, 0.000000, 352.099976, 1557645963.107474, 4.000000, 4.000000, 4.000000, 4.000000, 4.000000
109.000000, 0.000000, 4296.922852, 4277.948730, 3798.974365, 3951.281982, 4024.102539, 450.000000, 8167.000000, 8491.000000, 0.000000, 0.000000, 0.000000, 0.000000, 360.099976, 1557645963.115474, 4.000000, 4.000000, 4.000000, 4.000000, 4.000000
110.000000, 0.000000, 4355.384277, 4347.692383, 3860.512695, 4055.897217, 4094.358887, 450.000000, 8161.000000, 8506.000000, 0.000000, 0.000000, 0.000000, 0.000000, 367.900024, 1557645963.123274, 4.000000, 4.000000, 4.000000, 4.000000, 4.000000
111.000000, 0.000000, 4394.871582, 4402.563965, 3910.256348, 4098.974121, 4123.589844, 16171.000000, 8163.000000, 8513.000000, 0.000000, 0.000000, 0.000000, 0.000000, 375.599976, 1557645963.130974, 4.000000, 4.000000, 4.000000, 4.000000, 4.000000
112.000000, 0.000000, 4324.102539, 4304.615234, 3832.820313, 3974.871582, 4037.948730, 450.000000, 8154.000000, 8537.000000, 0.000000, 0.000000, 0.000000, 0.000000, 383.400024, 1557645963.138774, 4.000000, 4.000000, 4.000000, 4.000000, 4.000000
113.000000, 0.000000, 4308.717773, 4283.076660, 3805.640869, 3953.845947, 4015.897217, 450.000000, 8145.000000, 8556.000000, 0.000000, 0.000000, 0.000000, 0.000000, 391.200012, 1557645963.146574, 4.000000, 4.000000, 4.000000, 4.000000, 4.000000
114.000000, 0.000000, 4356.922852, 4301.025391, 3830.769043, 3975.384521, 4053.845947, 450.000000, 8144.000000, 8540.000000, 0.000000, 0.000000, 0.000000, 0.000000, 399.099976, 1557645963.154474, 4.000000, 4.000000, 4.000000, 4.000000, 4.000000
115.000000, 0.000000, 4413.333008, 4299.487305, 3852.307617, 4025.128174, 4094.358887, 16171.000000, 8141.000000, 8524.000000, 0.000000, 0.000000, 0.000000, 0.000000, 407.099976, 1557645963.162474, 4.000000, 4.000000, 4.000000, 4.000000, 4.000000
116.000000, 0.000000, 4493.846191, 4385.127930, 3914.871582, 4139.487305, 4162.051270, 450.000000, 8135.000000, 8530.000000, 0.000000, 0.000000, 0.000000, 0.000000, 415.000000, 1557645963.170374, 4.000000, 4.000000, 4.000000, 4.000000, 4.000000
117.000000, 0.000000, 4524.102539, 4389.743652, 3898.461426, 4086.153809, 4165.641113, 450.000000, 8132.000000, 8520.000000, 0.000000, 0.000000, 0.000000, 0.000000, 423.000000, 1557645963.178374, 4.000000, 4.000000, 4.000000, 4.000000, 4.000000
118.000000, 0.000000, 4489.743652, 4252.307617, 3785.640869, 3927.692139, 4112.307617, 450.000000, 8128.000000, 8504.000000, 0.000000, 0.000000, 0.000000, 0.000000, 430.799988, 1557645963.186174, 4.000000, 4.000000, 4.000000, 4.000000, 4.000000
119.000000, 0.000000, 4507.179199, 4255.897461, 3804.102539, 3952.820313, 4149.230469, 16171.000000, 8115.000000, 8500.000000, 0.000000, 0.000000, 0.000000, 0.000000, 438.599976, 1557645963.193974, 4.000000, 4.000000, 4.000000, 4.000000, 4.000000
120.000000, 0.000000, 4572.820313, 4377.948730, 3926.666504, 4069.230713, 4229.230469, 450.000000, 8114.000000, 8511.000000, 0.000000, 0.000000, 0.000000, 0.000000, 446.299988, 1557645963.201674, 4.000000, 4.000000, 4.000000, 4.000000, 4.000000
121.000000, 0.000000, 4581.538574, 4375.384277, 3935.384521, 4072.820313, 4232.307617, 450.000000, 8112.000000, 8515.000000, 0.000000, 0.000000, 0.000000, 0.000000, 454.099976, 1557645963.209474, 4.000000, 4.000000, 4.000000, 4.000000, 4.000000
122.000000, 0.000000, 4508.205078, 4302.051270, 3851.794678, 3987.179443, 4160.512695, 450.000000, 8114.000000, 8517.000000, 0.000000, 0.000000, 0.000000, 0.000000, 462.099976, 1557645963.217474, 4.000000, 4.000000, 4.000000, 4.000000, 4.000000
123.000000, 0.000000, 4457.948730, 4315.897461, 3860.000000, 3992.307617, 4109.743652, 16171.000000, 8108.000000, 8521.000000, 0.000000, 0.000000, 0.000000, 0.000000, 470.000000, 1557645963.225374, 4.000000, 4.000000, 4.000000, 4.000000, 4.000000
124.000000, 0.000000, 4491.794922, 4358.461426, 3951.794678, 4079.487061, 4148.717773, 450.000000, 8109.000000, 8518.000000, 0.000000, 0.000000, 0.000000, 0.000000, 478.000000, 1557645963.233374, 4.000000, 4.000000, 4.000000, 4.000000, 4.000000
125.000000, 0.000000, 4472.307617, 4314.358887, 3942.051270, 4068.717773, 4151.794922, 450.000000, 8114.000000, 8509.000000, 0.000000, 0.000000, 0.000000, 0.000000, 485.900024, 1557645963.241274, 4.000000, 4.000000, 4.000000, 4.000000, 4.000000
126.000000, 0.000000, 4400.512695, 4285.641113, 3890.769043, 4021.025635, 4083.589600, 450.000000, 8113.000000, 8507.000000, 0.000000, 0.000000, 0.000000, 0.000000, 493.700012, 1557645963.249074, 4.000000, 4.000000, 4.000000, 4.000000, 4.000000
127.000000, 0.000000, 4421.025391, 4332.820313, 3939.487061, 4033.845947, 4093.845947, 16171.000000, 8113.000000, 8492.000000, 0.000000, 0.000000, 0.000000, 0.000000, 501.500000, 1557645963.256874, 4.000000, 4.000000, 4.000000, 4.000000, 4.000000
128.000000, 0.000000, 4425.127930, 4297.948730, 3947.692139, 4016.923096, 4113.846191, 500.000000, 8116.000000, 8471.000000, 0.000000, 0.000000, 0.000000, 0.000000, 509.299988, 1557645963.264674, 4.000000, 4.000000, 4.000000, 4.000000, 4.000000
0.000000, 0.000000, 4376.922852, 4249.230469, 3903.589600, 4022.051270, 4072.307617, 500.000000, 8115.000000, 8454.000000, 0.000000, 0.000000, 0.000000, 0.000000, 517.000000, 1557645963.272374, 4.000000, 4.000000, 4.000000, 4.000000, 4.000000
1.000000, 0.000000, 4391.794922, 4310.256348, 3939.487061, 4034.358887, 4070.256348, 500.000000, 8122.000000, 8458.000000, 0.000000, 0.000000, 0.000000, 0.000000, 525.000000, 1557645963.280374, 4.000000, 4.000000, 4.000000, 4.000000, 4.000000
2.000000, 0.000000, 4389.230469, 4306.153809, 3953.845947, 3958.461426, 4060.000000, 16194.000000, 8123.000000, 8442.000000, 0.000000, 0.000000, 0.000000, 0.000000, 533.000000, 1557645963.288374, 4.000000, 4.000000, 4.000000, 4.000000, 4.000000
3.000000, 0.000000, 4363.589844, 4256.410156, 3929.743408, 3952.307617, 4021.025635, 500.000000, 8132.000000, 8437.000000, 0.000000, 0.000000, 0.000000, 0.000000, 541.000000, 1557645963.296374, 4.000000, 4.000000, 4.000000, 4.000000, 4.000000
4.000000, 0.000000, 4415.897461, 4317.436035, 3991.281982, 4035.897217, 4057.948730, 16166.000000, 8136.000000, 8441.000000, 0.000000, 0.000000, 0.000000, 0.000000, 549.000000, 1557645963.304374, 4.000000, 4.000000, 4.000000, 4.000000, 4.000000
5.000000, 0.000000, 4432.307617, 4335.897461, 4029.743408, 4040.512695, 4081.538330, 500.000000, 8140.000000, 8425.000000, 0.000000, 0.000000, 0.000000, 0.000000, 556.900024, 1557645963.312274, 4.000000, 4.000000, 4.000000, 4.000000, 4.000000
6.000000, 0.000000, 4391.281738, 4285.127930, 4000.512695, 4019.487061, 4041.025635, 16151.000000, 8141.000000, 8409.000000, 0.000000, 0.000000, 0.000000, 0.000000, 564.700012, 1557645963.320074, 4.000000, 4.000000, 4.000000, 4.000000, 4.000000
7.000000, 0.000000, 4395.384277, 4294.871582, 4009.230713, 3990.256348, 4029.230713, 500.000000, 8138.000000, 8389.000000, 0.000000, 0.000000, 0.000000, 0.000000, 572.500000, 1557645963.327874, 4.000000, 4.000000, 4.000000, 4.000000, 4.000000
8.000000, 0.000000, 4396.922852, 4302.563965, 4033.845947, 3985.128174, 4038.461426, 500.000000, 8140.000000, 8387.000000, 0.000000, 0.000000, 0.000000, 0.000000, 580.299988, 1557645963.335674, 4.000000, 4.000000, 4.000000, 4.000000, 4.000000
9.000000, 0.000000, 4366.153809, 4264.102539, 4024.102539, 4030.256348, 4019.487061, 16119.000000, 8137.000000, 8377.000000, 0.000000, 0.000000, 0.000000, 0.000000, 588.200012, 1557645963.343574, 4.000000, 4.000000, 4.000000, 4.000000, 4.000000
10.000000, 0.000000, 4356.410156, 4235.897461, 4007.179443, 4023.076904, 3992.307617, 500.000000, 8136.000000, 8376.000000, 0.000000, 0.000000, 0.000000, 0.000000, 596.099976, 1557645963.351474, 4.000000, 4.000000, 4.000000, 4.000000, 4.000000
11.000000, 0.000000, 4370.769043, 4267.692383, 4015.384521, 3959.487061, 3996.923096, 16234.000000, 8125.000000, 8365.000000, 0.000000, 0.000000, 0.000000, 0.000000, 604.099976, 1557645963.359474, 4.000000, 4.000000, 4.000000, 4.000000, 4.000000
12.000000, 0.000000, 4407.179199, 4355.384277, 4061.538330, 3976.410156, 4038.461426, 500.000000, 8127.000000, 8357.000000, 0.000000, 0.000000, 0.000000, 0.000000, 612.099976, 1557645963.367474, 4.000000, 4.000000, 4.000000, 4.000000, 4.000000
13.000000, 0.000000, 4435.384277, 4373.846191, 4115.384277, 4049.230713, 4071.281982, 500.000000, 8124.000000, 8350.000000, 0.000000, 0.000000, 0.000000, 0.000000, 620.099976, 1557645963.375474, 4.000000, 4.000000, 4.000000, 4.000000, 4.000000
14.000000, 0.000000, 4406.153809, 4300.512695, 4111.281738, 4043.076904, 4055.897217, 450.000000, 8117.000000, 8359.000000, 0.000000, 0.000000, 0.000000, 0.000000, 627.799988, 1557645963.383174, 4.000000, 4.000000, 4.000000, 4.000000, 4.000000
15.000000, 0.000000, 4374.871582, 4265.127930, 4066.153809, 4008.717773, 4023.076904, 16234.000000, 8125.000000, 8355.000000, 0.000000, 0.000000, 0.000000, 0.000000, 635.599976, 1557645963.390974, 4.000000, 4.000000, 4.000000, 4.000000, 4.000000
16.000000, 0.000000, 4378.461426, 4264.615234, 4037.435791, 4032.307617, 4000.000000, 0.000000, 8126.000000, 8340.000000, 0.000000, 0.000000, 0.000000, 0.000000, 643.400024, 1557645963.398774, 4.000000, 4.000000, 4.000000, 4.000000, 4.000000
17.000000, 0.000000, 4402.563965, 4295.384277, 4063.589600, 4036.923096, 4020.000000, 0.000000, 8120.000000, 8352.000000, 0.000000, 0.000000, 0.000000, 0.000000, 651.400024, 1557645963.406774, 4.000000, 4.000000, 4.000000, 4.000000, 4.000000
18.000000, 0.000000, 4445.127930, 4363.589844, 4116.410156, 3999.487061, 4078.974365, 0.000000, 8127.000000, 8348.000000, 0.000000, 0.000000, 0.000000, 0.000000, 659.200012, 1557645963.414574, 4.000000, 4.000000, 4.000000, 4.000000, 4.000000
19.000000, 0.000000, 4457.435547, 4356.410156, 4117.436035, 4007.179443, 4074.871582, 0.000000, 8126.000000, 8334.000000, 0.000000, 0.000000, 0.000000, 0.000000, 667.100000, 1557645963.422474, 4.000000, 4.000000, 4.000000, 4.000000, 4.000000
20.000000, 0.000000, 4505.641113, 4356.410156, 4141.025391, 4064.615234, 4092.820313, 0.000000, 8127.000000, 8326.000000, 0.000000, 0.000000, 0.000000, 0.000000, 675.100000, 1557645963.430474, 4.000000, 4.000000, 4.000000, 4.000000, 4.000000
21.000000, 0.000000, 4583.589844, 4387.692383, 4175.897461, 4080.512695, 4156.922852, 0.000000, 8126.000000, 8321.000000, 0.000000, 0.000000, 0.000000, 0.000000, 683.100000, 1557645963.438474, 4.000000, 4.000000, 4.000000, 4.000000, 4.000000
22.000000, 0.000000, 4556.922852, 4300.512695, 4124.102539, 4026.666504, 4112.307617, 0.000000, 8133.000000, 8312.000000, 0.000000, 0.000000, 0.000000, 0.000000, 691.100000, 1557645963.446474, 4.000000, 4.000000, 4.000000, 4.000000, 4.000000
23.000000, 0.000000, 4545.641113, 4253.846191, 4101.538574, 4011.281982, 4065.640869, 0.000000, 8131.000000, 8308.000000, 0.000000, 0.000000, 0.000000, 0.000000, 698.799999, 1557645963.454174, 4.000000, 4.000000, 4.000000, 4.000000, 4.000000
24.000000, 0.000000, 4652.307617, 4337.436035, 4152.307617, 4045.640869, 4136.922852, 0.000000, 8138.000000, 8296.000000, 0.000000, 0.000000, 0.000000, 0.000000, 706.599998, 1557645963.461974, 4.000000, 4.000000, 4.000000, 4.000000, 4.000000
25.000000, 0.000000, 4722.051270, 4362.563965, 4176.922852, 4042.563965, 4216.410156, 0.000000, 8146.000000, 8288.000000, 0.000000, 0.000000, 0.000000, 0.000000, 714.400002, 1557645963.469774, 4.000000, 4.000000, 4.000000, 4.000000, 4.000000
26.000000, 0.000000, 4720.512695, 4352.307617, 4183.589844, 4085.128174, 4245.127930, 0.000000, 8142.000000, 8283.000000, 0.000000, 0.000000, 0.000000, 0.000000, 722.200001, 1557645963.477574, 4.000000, 4.000000, 4.000000, 4.000000, 4.000000
27.000000, 0.000000, 4716.922852, 4366.153809, 4188.205078, 4124.102539, 4235.384277, 0.000000, 8143.000000, 8289.000000, 0.000000, 0.000000, 0.000000, 0.000000, 730.199997, 1557645963.485574, 4.000000, 4.000000, 4.000000, 4.000000, 4.000000
28.000000, 0.000000, 4681.538574, 4332.820313, 4163.076660, 4018.974365, 4182.051270, 0.000000, 8146.000000, 8280.000000, 0.000000, 0.000000, 0.000000, 0.000000, 738.099998, 1557645963.493474, 4.000000, 4.000000, 4.000000, 4.000000, 4.000000
29.000000, 0.000000, 4642.051270, 4299.487305, 4165.127930, 3972.820313, 4165.127930, 0.000000, 8150.000000, 8271.000000, 0.000000, 0.000000, 0.000000, 0.000000, 746.099998, 1557645963.501474, 4.000000, 4.000000, 4.000000, 4.000000, 4.000000
30.000000, 0.000000, 4610.769043, 4280.512695, 4178.974121, 4085.640869, 4163.076660, 0.000000, 8147.000000, 8266.000000, 0.000000, 0.000000, 0.000000, 0.000000, 753.900002, 1557645963.509274, 4.000000, 4.000000, 4.000000, 4.000000, 4.000000
31.000000, 0.000000, 4578.974121, 4282.563965, 4176.410156, 4101.025391, 4125.127930, 0.000000, 8152.000000, 8280.000000, 0.000000, 0.000000, 0.000000, 0.000000, 761.699997, 1557645963.517074, 4.000000, 4.000000, 4.000000, 4.000000, 4.000000
32.000000, 0.000000, 4647.179199, 4399.487305, 4249.230469, 4071.281982, 4184.615234, 0.000000, 8157.000000, 8270.000000, 0.000000, 0.000000, 0.000000, 0.000000, 769.400002, 1557645963.524774, 4.000000, 4.000000, 4.000000, 4.000000, 4.000000
33.000000, 0.000000, 4695.384277, 4438.461426, 4283.076660, 4129.230469, 4238.461426, 0.000000, 8152.000000, 8273.000000, 0.000000, 0.000000, 0.000000, 0.000000, 777.199997, 1557645963.532574, 4.000000, 4.000000, 4.000000, 4.000000, 4.000000
34.000000, 0.000000, 4595.384277, 4298.461426, 4188.205078, 4070.256348, 4142.563965, 0.000000, 8151.000000, 8282.000000, 0.000000, 0.000000, 0.000000, 0.000000, 785.099998, 1557645963.540474, 4.000000, 4.000000, 4.000000, 4.000000, 4.000000
35.000000, 0.000000, 4521.538574, 4254.358887, 4151.794922, 3990.769043, 4071.281982, 0.000000, 8152.000000, 8281.000000, 0.000000, 0.000000, 0.000000, 0.000000, 793.100006, 1557645963.548474, 4.000000, 4.000000, 4.000000, 4.000000, 4.000000
36.000000, 0.000000, 4554.871582, 4343.076660, 4230.256348, 4080.000000, 4124.102539, 0.000000, 8145.000000, 8280.000000, 0.000000, 0.000000, 0.000000, 0.000000, 801.100006, 1557645963.556474, 4.000000, 4.000000, 4.000000, 4.000000, 4.000000
37.000000, 0.000000, 4591.281738, 4375.384277, 4283.076660, 4156.410156, 4180.000000, 0.000000, 8147.000000, 8283.000000, 0.000000, 0.000000, 0.000000, 0.000000, 809.000000, 1557645963.564374, 4.000000, 4.000000, 4.000000, 4.000000, 4.000000
38.000000, 0.000000, 4565.641113, 4321.538574, 4247.179199, 4107.692383, 4152.820313, 0.000000, 8151.000000, 8278.000000, 0.000000, 0.000000, 0.000000, 0.000000, 817.000000, 1557645963.572374, 4.000000, 4.000000, 4.000000, 4.000000, 4.000000
39.000000, 0.000000, 4520.000000, 4282.051270, 4210.256348, 4050.256348, 4093.333252, 0.000000, 8145.000000, 8282.000000, 0.000000, 0.000000, 0.000000, 0.000000, 824.800003, 1557645963.580174, 4.000000, 4.000000, 4.000000, 4.000000, 4.000000
40.000000, 0.000000, 4535.897461, 4324.102539, 4257.948730, 4083.076904, 4097.948730, 0.000000, 8140.000000, 8297.000000, 0.000000, 0.000000, 0.000000, 0.000000, 832.600006, 1557645963.587974, 4.000000, 4.000000, 4.000000, 4.000000, 4.000000
41.000000, 0.000000, 4582.563965, 4382.051270, 4318.974121, 4137.948730, 4146.153809, 0.000000, 8137.000000, 8301.000000, 0.000000, 0.000000, 0.000000, 0.000000, 840.300003, 1557645963.595674, 4.000000, 4.000000, 4.000000, 4.000000, 4.000000
42.000000, 0.000000, 4563.076660, 4353.333008, 4295.897461, 4121.025391, 4139.487305, 0.000000, 8140.000000, 8297.000000, 0.000000, 0.000000, 0.000000, 0.000000, 848.300003, 1557645963.603674, 4.000000, 4.000000, 4.000000, 4.000000, 4.000000
43.000000, 0.000000, 4524.102539, 4291.794922, 4267.179199, 4123.589844, 4109.743652, 0.000000, 8138.000000, 8300.000000, 0.000000, 0.000000, 0.000000, 0.000000, 856.199997, 1557645963.611574, 4.000000, 4.000000, 4.000000, 4.000000, 4.000000
44.000000, 0.000000, 4506.153809, 4275.384277, 4272.307617, 4133.333008, 4090.769043, 0.000000, 8137.000000, 8315.000000, 0.000000, 0.000000, 0.000000, 0.000000, 864.199997, 1557645963.619574, 4.000000, 4.000000, 4.000000, 4.000000, 4.000000
45.000000, 0.000000, 4498.461426, 4317.948730, 4286.666504, 4052.820313, 4078.974365, 0.000000, 8137.000000, 8319.000000, 0.000000, 0.000000, 0.000000, 0.000000, 872.100006, 1557645963.627474, 4.000000, 4.000000, 4.000000, 4.000000, 4.000000
46.000000, 0.000000, 4529.230469, 4382.051270, 4319.487305, 4000.000000, 4106.666504, 0.000000, 8135.000000, 8316.000000, 0.000000, 0.000000, 0.000000, 0.000000, 880.000000, 1557645963.635374, 4.000000, 4.000000, 4.000000, 4.000000, 4.000000
47.000000, 0.000000, 4541.025391, 4365.641113, 4305.641113, 4079.487061, 4110.769043, 0.000000, 8127.000000, 8318.000000, 0.000000, 0.000000, 0.000000, 0.000000, 887.800003, 1557645963.643174, 4.000000, 4.000000, 4.000000, 4.000000, 4.000000
48.000000, 0.000000, 4500.512695, 4283.589844, 4252.820313, 4156.410156, 4062.051270, 0.000000, 8126.000000, 8317.000000, 0.000000, 0.000000, 0.000000, 0.000000, 895.600006, 1557645963.650974, 4.000000, 4.000000, 4.000000, 4.000000, 4.000000
49.000000, 0.000000, 4482.563965, 4270.769043, 4260.512695, 4117.436035, 4052.820313, 0.000000, 8125.000000, 8318.000000, 0.000000, 0.000000, 0.000000, 0.000000, 903.399994, 1557645963.658774, 4.000000, 4.000000, 4.000000, 4.000000, 4.000000
50.000000, 0.000000, 4521.025391, 4336.922852, 4312.820313, 4085.128174, 4104.102539, 0.000000, 8119.000000, 8323.000000, 0.000000, 0.000000, 0.000000, 0.000000, 911.100006, 1557645963.666474, 4.000000, 4.000000, 4.000000, 4.000000, 4.000000
51.000000, 0.000000, 4565.641113, 4363.589844, 4331.281738, 4144.615234, 4138.461426, 0.000000, 8118.000000, 8317.000000, 0.000000, 0.000000, 0.000000, 0.000000, 919.100006, 1557645963.674474, 4.000000, 4.000000, 4.000000, 4.000000, 4.000000
52.000000, 0.000000, 4572.820313, 4347.179199, 4326.666504, 4166.153809, 4132.820313, 0.000000, 8127.000000, 8328.000000, 0.000000, 0.000000, 0.000000, 0.000000, 927.100006, 1557645963.682474, 4.000000, 4.000000, 4.000000, 4.000000, 4.000000
53.000000, 0.000000, 4545.641113, 4335.384277, 4327.692383, 4076.410156, 4111.281738, 0.000000, 8124.000000, 8334.000000, 0.000000, 0.000000, 0.000000, 0.000000, 935.100006, 1557645963.690474, 4.000000, 4.000000, 4.000000, 4.000000, 4.000000
54.000000, 0.000000, 4532.307617, 4340.000000, 4346.153809, 4076.410156, 4102.051270, 0.000000, 8124.000000, 8340.000000, 0.000000, 0.000000, 0.000000, 0.000000, 943.100006, 1557645963.698474, 4.000000, 4.000000, 4.000000, 4.000000, 4.000000
55.000000, 0.000000, 4532.307617, 4320.512695, 4345.641113, 4180.000000, 4093.845947, 0.000000, 8132.000000, 8332.000000, 0.000000, 0.000000, 0.000000, 0.000000, 951.000000, 1557645963.706374, 4.000000, 4.000000, 4.000000, 4.000000, 4.000000
56.000000, 0.000000, 4503.589844, 4265.641113, 4297.436035, 4140.000000, 4054.871582, 0.000000, 8130.000000, 8335.000000, 0.000000, 0.000000, 0.000000, 0.000000, 958.799988, 1557645963.714174, 4.000000, 4.000000, 4.000000, 4.000000, 4.000000
57.000000, 0.000000, 4505.127930, 4273.846191, 4306.666504, 4068.717773, 4052.820313, 0.000000, 8124.000000, 8342.000000, 0.000000, 0.000000, 0.000000, 0.000000, 966.600006, 1557645963.721974, 4.000000, 4.000000, 4.000000, 4.000000, 4.000000
58.000000, 0.000000, 4555.897461, 4348.717773, 4383.589844, 4134.871582, 4102.051270, 0.000000, 8129.000000, 8338.000000, 0.000000, 0.000000, 0.000000, 0.000000, 974.399994, 1557645963.729774, 4.000000, 4.000000, 4.000000, 4.000000, 4.000000
59.000000, 0.000000, 4560.512695, 4366.153809, 4389.743652, 4146.666504, 4108.205078, 0.000000, 8135.000000, 8334.000000, 0.000000, 0.000000, 0.000000, 0.000000, 982.100006, 1557645963.737474, 4.000000, 4.000000, 4.000000, 4.000000, 4.000000
60.000000, 0.000000, 4515.897461, 4296.922852, 4348.205078, 4075.384521, 4072.307617, 0.000000, 8131.000000, 8336.000000, 0.000000, 0.000000, 0.000000, 0.000000, 990.100006, 1557645963.745474, 4.000000, 4.000000, 4.000000, 4.000000, 4.000000
61.000000, 0.000000, 4512.820313, 4266.153809, 4373.846191, 4105.127930, 4075.384521, 0.000000, 8141.000000, 8344.000000, 0.000000, 0.000000, 0.000000, 0.000000, 998.100006, 1557645963.753474, 4.000000, 4.000000, 4.000000, 4.000000, 4.000000
62.000000, 0.000000, 4541.025391, 4299.487305, 4410.769043, 4128.205078, 4094.871582, 0.000000, 8147.000000, 8338.000000, 0.000000, 0.000000, 0.000000, 1.000000, 6.000000, 1557645963.761374, 4.000000, 4.000000, 4.000000, 4.000000, 4.000000
63.000000, 0.000000, 4560.512695, 4332.820313, 4416.922852, 4111.794922, 4103.589844, 0.000000, 8150.000000, 8346.000000, 0.000000, 0.000000, 0.000000, 1.000000, 14.000000, 1557645963.769374, 4.000000, 4.000000, 4.000000, 4.000000, 4.000000
64.000000, 0.000000, 4587.179199, 4340.000000, 4442.051270, 4198.974121, 4141.025391, 500.000000, 8157.000000, 8352.000000, 0.000000, 0.000000, 0.000000, 1.000000, 21.700012, 1557645963.777074, 4.000000, 4.000000, 4.000000, 4.000000, 4.000000
65.000000, 0.000000, 4601.025391, 4326.153809, 4467.179199, 4217.436035, 4160.000000, 500.000000, 8172.000000, 8360.000000, 0.000000, 0.000000, 0.000000, 1.000000, 29.600006, 1557645963.784974, 4.000000, 4.000000, 4.000000, 4.000000, 4.000000
66.000000, 0.000000, 4571.794922, 4320.512695, 4467.179199, 4089.743408, 4122.051270, 16181.000000, 8176.000000, 8366.000000, 0.000000, 0.000000, 0.000000, 1.000000, 37.399994, 1557645963.792774, 4.000000, 4.000000, 4.000000, 4.000000, 4.000000
67.000000, 0.000000, 4538.974121, 4306.153809, 4458.461426, 4096.410156, 4096.410156, 500.000000, 8189.000000, 8376.000000, 0.000000, 0.000000, 0.000000, 1.000000, 45.200012, 1557645963.800574, 4.000000, 4.000000, 4.000000, 4.000000, 4.000000
68.000000, 0.000000, 4529.743652, 4272.820313, 4444.615234, 4184.615234, 4090.769043, 16157.000000, 8204.000000, 8381.000000, 0.000000, 0.000000, 0.000000, 1.000000, 53.100006, 1557645963.808474, 4.000000, 4.000000, 4.000000, 4.000000, 4.000000
69.000000, 0.000000, 4531.794922, 4277.948730, 4436.922852, 4144.615234, 4069.743408, 500.000000, 8224.000000, 8380.000000, 0.000000, 0.000000, 0.000000, 1.000000, 61.100006, 1557645963.816474, 4.000000, 4.000000, 4.000000, 4.000000, 4.000000
70.000000, 0.000000, 4554.871582, 4320.512695, 4453.333008, 4128.205078, 4072.820313, 16144.000000, 8232.000000, 8400.000000, 0.000000, 0.000000, 0.000000, 1.000000, 69.100006, 1557645963.824474, 4.000000, 4.000000, 4.000000, 4.000000, 4.000000
71.000000, 0.000000, 4612.307617, 4341.538574, 4477.435547, 4182.051270, 4103.076660, 500.000000, 8256.000000, 8410.000000, 0.000000, 0.000000, 0.000000, 1.000000, 77.000000, 1557645963.832374, 4.000000, 4.000000, 4.000000, 4.000000, 4.000000
72.000000, 0.000000, 4666.153809, 4352.820313, 4492.820313, 4175.897461, 4104.615234, 500.000000, 8267.000000, 8403.000000, 0.000000, 0.000000, 0.000000, 1.000000, 84.799988, 1557645963.840174, 4.000000, 4.000000, 4.000000, 4.000000, 4.000000
73.000000, 0.000000, 4671.794922, 4384.615234, 4495.897461, 4138.974121, 4100.000000, 16106.000000, 8287.000000, 8426.000000, 0.000000, 0.000000, 0.000000, 1.000000, 92.500000, 1557645963.847874, 4.000000, 4.000000, 4.000000, 4.000000, 4.000000
74.000000, 0.000000, 4632.307617, 4370.256348, 4483.589844, 4120.512695, 4090.256348, 500.000000, 8291.000000, 8443.000000, 0.000000, 0.000000, 0.000000, 1.000000, 100.299988, 1557645963.855674, 4.000000, 4.000000, 4.000000, 4.000000, 4.000000
75.000000, 0.000000, 4575.384277, 4316.922852, 4467.692383, 4114.871582, 4022.051270, 16187.000000, 8305.000000, 8451.000000, 0.000000, 0.000000, 0.000000, 1.000000, 108.200012, 1557645963.863574, 4.000000, 4.000000, 4.000000, 4.000000, 4.000000
76.000000, 0.000000, 4536.922852, 4314.871582, 4463.076660, 4081.025635, 3963.076904, 500.000000, 8307.000000, 8455.000000, 0.000000, 0.000000, 0.000000, 1.000000, 116.200012, 1557645963.871574, 4.000000, 4.000000, 4.000000, 4.000000, 4.000000
77.000000, 0.000000, 4542.563965, 4340.512695, 4457.435547, 4044.615234, 3990.769043, 500.000000, 8316.000000, 8464.000000, 0.000000, 0.000000, 0.000000, 1.000000, 124.100006, 1557645963.879474, 4.000000, 4.000000, 4.000000, 4.000000, 4.000000
78.000000, 0.000000, 4560.512695, 4324.102539, 4446.153809, 4073.333252, 4014.871582, 450.000000, 8316.000000, 8469.000000, 0.000000, 0.000000, 0.000000, 1.000000, 132.100006, 1557645963.887474, 4.000000, 4.000000, 4.000000, 4.000000, 4.000000
79.000000, 0.000000, 4598.974121, 4369.230469, 4497.948730, 4129.230469, 4014.358887, 16187.000000, 8319.000000, 8475.000000, 0.000000, 0.000000, 0.000000, 1.000000, 140.100006, 1557645963.895474, 4.000000, 4.000000, 4.000000, 4.000000, 4.000000
80.000000, 0.000000, 4644.102539, 4481.538574, 4579.487305, 4109.230469, 4043.076904, 450.000000, 8319.000000, 8469.000000, 0.000000, 0.000000, 0.000000, 1.000000, 148.100006, 1557645963.903474, 4.000000, 4.000000, 4.000000, 4.000000, 4.000000
81.000000, 0.000000, 4613.846191, 4460.000000, 4545.641113, 4053.845947, 4027.692139, 450.000000, 8321.000000, 8468.000000, 0.000000, 0.000000, 0.000000, 1.000000, 155.899994, 1557645963.911274, 4.000000, 4.000000, 4.000000, 4.000000, 4.000000
82.000000, 0.000000, 4541.025391, 4346.153809, 4444.615234, 4072.820313, 3954.358887, 450.000000, 8327.000000, 8457.000000, 0.000000, 0.000000, 0.000000, 1.000000, 163.600006, 1557645963.918974, 4.000000, 4.000000, 4.000000, 4.000000, 4.000000
83.000000, 0.000000, 4527.179199, 4337.436035, 4433.846191, 4094.358887, 3924.102539, 16187.000000, 8322.000000, 8465.000000, 0.000000, 0.000000, 0.000000, 1.000000, 171.399994, 1557645963.926774, 4.000000, 4.000000, 4.000000, 4.000000, 4.000000
84.000000, 0.000000, 4536.410156, 4369.230469, 4470.769043, 4051.794678, 3936.923096, 450.000000, 8313.000000, 8463.000000, 0.000000, 0.000000, 0.000000, 1.000000, 179.200012, 1557645963.934574, 4.000000, 4.000000, 4.000000, 4.000000, 4.000000
85.000000, 0.000000, 4517.948730, 4356.922852, 4460.512695, 4024.102539, 3941.538330, 450.000000, 8305.000000, 8447.000000, 0.000000, 0.000000, 0.000000, 1.000000, 187.200012, 1557645963.942574, 4.000000, 4.000000, 4.000000, 4.000000, 4.000000
86.000000, 0.000000, 4532.820313, 4370.769043, 4466.666504, 4069.230713, 3960.000000, 450.000000, 8297.000000, 8443.000000, 0.000000, 0.000000, 0.000000, 1.000000, 195.099976, 1557645963.950474, 4.000000, 4.000000, 4.000000, 4.000000, 4.000000
87.000000, 0.000000, 4574.871582, 4403.076660, 4504.615234, 4110.769043, 3983.076904, 16187.000000, 8295.000000, 8449.000000, 0.000000, 0.000000, 0.000000, 1.000000, 203.099976, 1557645963.958474, 4.000000, 4.000000, 4.000000, 4.000000, 4.000000
88.000000, 0.000000, 4575.897461, 4392.820313, 4500.000000, 4102.051270, 3974.871582, 450.000000, 8297.000000, 8441.000000, 0.000000, 0.000000, 0.000000, 1.000000, 211.099976, 1557645963.966474, 4.000000, 4.000000, 4.000000, 4.000000, 4.000000
89.000000, 0.000000, 4535.384277, 4347.179199, 4462.563965, 4101.025391, 3936.410156, 450.000000, 8300.000000, 8430.000000, 0.000000, 0.000000, 0.000000, 1.000000, 218.900024, 1557645963.974274, 4.000000, 4.000000, 4.000000, 4.000000, 4.000000
90.000000, 0.000000, 4496.410156, 4317.436035, 4445.127930, 4093.333252, 3898.974365, 450.000000, 8311.000000, 8425.000000, 0.000000, 0.000000, 0.000000, 1.000000, 226.700012, 1557645963.982074, 4.000000, 4.000000, 4.000000, 4.000000, 4.000000
91.000000, 0.000000, 4518.461426, 4355.897461, 4464.102539, 4072.307617, 3915.897461, 16187.000000, 8309.000000, 8428.000000, 0.000000, 0.000000, 0.000000, 1.000000, 234.599976, 1557645963.989974, 4.000000, 4.000000, 4.000000, 4.000000, 4.000000
92.000000, 0.000000, 4542.563965, 4398.461426, 4461.538574, 4072.820313, 3928.205078, 450.000000, 8315.000000, 8429.000000, 0.000000, 0.000000, 0.000000, 1.000000, 242.400024, 1557645963.997774, 4.000000, 4.000000, 4.000000, 4.000000, 4.000000
93.000000, 0.000000, 4486.153809, 4355.897461, 4414.358887, 4057.435791, 3871.281982, 450.000000, 8326.000000, 8434.000000, 0.000000, 0.000000, 0.000000, 1.000000, 250.200012, 1557645964.005574, 4.000000, 4.000000, 4.000000, 4.000000, 4.000000
94.000000, 0.000000, 4466.666504, 4320.000000, 4425.641113, 4036.410156, 3868.717773, 450.000000, 8325.000000, 8425.000000, 0.000000, 0.000000, 0.000000, 1.000000, 258.099976, 1557645964.013474, 4.000000, 4.000000, 4.000000, 4.000000, 4.000000
95.000000, 0.000000, 4555.384277, 4376.922852, 4501.538574, 4079.487061, 3969.230713, 16187.000000, 8324.000000, 8416.000000, 0.000000, 0.000000, 0.000000, 1.000000, 266.099976, 1557645964.021474, 4.000000, 4.000000, 4.000000, 4.000000, 4.000000
96.000000, 0.000000, 4574.871582, 4405.127930, 4522.051270, 4153.333008, 4004.102539, 450.000000, 8311.000000, 8417.000000, 0.000000, 0.000000, 0.000000, 1.000000, 274.000000, 1557645964.029374, 4.000000, 4.000000, 4.000000, 4.000000, 4.000000
97.000000, 0.000000, 4494.358887, 4380.000000, 4496.922852, 4157.436035, 3963.589600, 450.000000, 8292.000000, 8405.000000, 0.000000, 0.000000, 0.000000, 1.000000, 282.000000, 1557645964.037374, 4.000000, 4.000000, 4.000000, 4.000000, 4.000000
98.000000, 0.000000, 4481.538574, 4411.794922, 4508.717773, 4112.307617, 3978.974365, 450.000000, 8276.000000, 8393.000000, 0.000000, 0.000000, 0.000000, 1.000000, 290.000000, 1557645964.045374, 4.000000, 4.000000, 4.000000, 4.000000, 4.000000
99.000000, 0.000000, 4482.563965, 4409.743652, 4505.127930, 4100.000000, 3979.487061, 16187.000000, 8249.000000, 8393.000000, 0.000000, 0.000000, 0.000000, 1.000000, 297.799988, 1557645964.053174, 4.000000, 4.000000, 4.000000, 4.000000, 4.000000
100.000000, 0.000000, 4456.410156, 4371.281738, 4484.102539, 4108.717773, 3950.256348, 450.000000, 8231.000000, 8402.000000, 0.000000, 0.000000, 0.000000, 1.000000, 305.500000, 1557645964.060874, 4.000000, 4.000000, 4.000000, 4.000000, 4.000000
101.000000, 0.000000, 4475.897461, 4414.871582, 4512.307617, 4148.717773, 3970.256348, 450.000000, 8192.000000, 8392.000000, 0.000000, 0.000000, 0.000000, 1.000000, 313.299988, 1557645964.068674, 4.000000, 4.000000, 4.000000, 4.000000, 4.000000
102.000000, 0.000000, 4469.230469, 4416.410156, 4522.563965, 4164.615234, 3959.487061, 450.000000, 8175.000000, 8389.000000, 0.000000, 0.000000, 0.000000, 1.000000, 321.099976, 1557645964.076474, 4.000000, 4.000000, 4.000000, 4.000000, 4.000000
103.000000, 0.000000, 4412.307617, 4327.179199, 4473.846191, 4095.897217, 3897.948730, 16187.000000, 8150.000000, 8392.000000, 0.000000, 0.000000, 0.000000, 1.000000, 329.099976, 1557645964.084474, 4.000000, 4.000000, 4.000000, 4.000000, 4.000000
104.000000, 0.000000, 4427.692383, 4337.436035, 4451.794922, 4076.923096, 3905.128174, 450.000000, 8136.000000, 8392.000000, 0.000000, 0.000000, 0.000000, 1.000000, 337.099976, 1557645964.092474, 4.000000, 4.000000, 4.000000, 4.000000, 4.000000
105.000000, 0.000000, 4478.974121, 4415.897461, 4468.717773, 4143.076660, 3946.666504, 450.000000, 8120.000000, 8399.000000, 0.000000, 0.000000, 0.000000, 1.000000, 345.000000, 1557645964.100374, 4.000000, 4.000000, 4.000000, 4.000000, 4.000000
106.000000, 0.000000, 4463.589844, 4400.000000, 4465.641113, 4139.487305, 3932.307617, 450.000000, 8112.000000, 8400.000000, 0.000000, 0.000000, 0.000000, 1.000000, 352.799988, 1557645964.108174, 4.000000, 4.000000, 4.000000, 4.000000, 4.000000
107.000000, 0.000000, 4451.281738, 4354.358887, 4452.307617, 4085.128174, 3923.076904, 16187.000000, 8110.000000, 8390.000000, 0.000000, 0.000000, 0.000000, 1.000000, 360.599976, 1557645964.115974, 4.000000, 4.000000, 4.000000, 4.000000, 4.000000
108.000000, 0.000000, 4475.897461, 4364.615234, 4465.641113, 4098.974121, 3942.051270, 450.000000, 8086.000000, 8392.000000, 0.000000, 0.000000, 0.000000, 1.000000, 368.400024, 1557645964.123774, 4.000000, 4.000000, 4.000000, 4.000000, 4.000000
109.000000, 0.000000, 4481.538574, 4381.025391, 4488.205078, 4122.563965, 3947.692139, 450.000000, 8085.000000, 8391.000000, 0.000000, 0.000000, 0.000000, 1.000000, 376.099976, 1557645964.131474, 4.000000, 4.000000, 4.000000, 4.000000, 4.000000
110.000000, 0.000000, 4473.333008, 4381.538574, 4497.435547, 4128.717773, 3947.179443, 450.000000, 8072.000000, 8387.000000, 0.000000, 0.000000, 0.000000, 1.000000, 384.000000, 1557645964.139374, 4.000000, 4.000000, 4.000000, 4.000000, 4.000000
111.000000, 0.000000, 4465.127930, 4381.025391, 4501.025391, 4131.794922, 3937.948730, 16187.000000, 8072.000000, 8379.000000, 0.000000, 0.000000, 0.000000, 1.000000, 392.000000, 1557645964.147374, 4.000000, 4.000000, 4.000000, 4.000000, 4.000000
112.000000, 0.000000, 4469.230469, 4384.615234, 4505.127930, 4113.333008, 3923.589600, 450.000000, 8057.000000, 8372.000000, 0.000000, 0.000000, 0.000000, 1.000000, 400.000000, 1557645964.155374, 4.000000, 4.000000, 4.000000, 4.000000, 4.000000
113.000000, 0.000000, 4485.641113, 4378.461426, 4480.512695, 4111.794922, 3926.153809, 450.000000, 8048.000000, 8379.000000, 0.000000, 0.000000, 0.000000, 1.000000, 408.000000, 1557645964.163374, 4.000000, 4.000000, 4.000000, 4.000000, 4.000000
114.000000, 0.000000, 4487.179199, 4353.333008, 4455.384277, 4105.127930, 3924.102539, 450.000000, 8032.000000, 8373.000000, 0.000000, 0.000000, 0.000000, 1.000000, 415.900024, 1557645964.171274, 4.000000, 4.000000, 4.000000, 4.000000, 4.000000
115.000000, 0.000000, 4480.000000, 4349.230469, 4485.127930, 4060.512695, 3907.179443, 16187.000000, 8032.000000, 8365.000000, 0.000000, 0.000000, 0.000000, 1.000000, 423.700012, 1557645964.179074, 4.000000, 4.000000, 4.000000, 4.000000, 4.000000
116.000000, 0.000000, 4542.563965, 4390.769043, 4537.435547, 4047.692139, 3950.256348, 450.000000, 8015.000000, 8360.000000, 0.000000, 0.000000, 0.000000, 1.000000, 431.500000, 1557645964.186874, 4.000000, 4.000000, 4.000000, 4.000000, 4.000000
117.000000, 0.000000, 4660.000000, 4432.820313, 4562.051270, 4137.948730, 4038.461426, 450.000000, 8015.000000, 8368.000000, 0.000000, 0.000000, 0.000000, 1.000000, 439.299988, 1557645964.194674, 4.000000, 4.000000, 4.000000, 4.000000, 4.000000
118.000000, 0.000000, 4722.051270, 4432.820313, 4571.281738, 4200.512695, 4076.923096, 450.000000, 8008.000000, 8355.000000, 0.000000, 0.000000, 0.000000, 1.000000, 447.000000, 1557645964.202374, 4.000000, 4.000000, 4.000000, 4.000000, 4.000000
119.000000, 0.000000, 4743.076660, 4424.615234, 4596.922852, 4137.436035, 4095.897217, 16187.000000, 8003.000000, 8363.000000, 0.000000, 0.000000, 0.000000, 1.000000, 455.000000, 1557645964.210374, 4.000000, 4.000000, 4.000000, 4.000000, 4.000000
120.000000, 0.000000, 4770.769043, 4436.410156, 4625.127930, 4135.384277, 4148.717773, 450.000000, 8000.000000, 8364.000000, 0.000000, 0.000000, 0.000000, 1.000000, 463.000000, 1557645964.218374, 4.000000, 4.000000, 4.000000, 4.000000, 4.000000
121.000000, 0.000000, 4745.127930, 4399.487305, 4616.922852, 4229.743652, 4163.076660, 450.000000, 8003.000000, 8355.000000, 0.000000, 0.000000, 0.000000, 1.000000, 471.000000, 1557645964.226374, 4.000000, 4.000000, 4.000000, 4.000000, 4.000000
122.000000, 0.000000, 4707.692383, 4367.179199, 4622.051270, 4236.410156, 4150.256348, 450.000000, 8003.000000, 8364.000000, 0.000000, 0.000000, 0.000000, 1.000000, 478.799988, 1557645964.234174, 4.000000, 4.000000, 4.000000, 4.000000, 4.000000
123.000000, 0.000000, 4727.179199, 4418.974121, 4677.435547, 4161.025391, 4187.179199, 16187.000000, 8007.000000, 8363.000000, 0.000000, 0.000000, 0.000000, 1.000000, 486.500000, 1557645964.241874, 4.000000, 4.000000, 4.000000, 4.000000, 4.000000
124.000000, 0.000000, 4722.563965, 4443.076660, 4708.205078, 4197.436035, 4214.871582, 450.000000, 8012.000000, 8358.000000, 0.000000, 0.000000, 0.000000, 1.000000, 494.500000, 1557645964.249874, 4.000000, 4.000000, 4.000000, 4.000000, 4.000000
125.000000, 0.000000, 4655.384277, 4387.692383, 4676.922852, 4261.538574, 4174.871582, 450.000000, 8020.000000, 8357.000000, 0.000000, 0.000000, 0.000000, 1.000000, 502.299988, 1557645964.257674, 4.000000, 4.000000, 4.000000, 4.000000, 4.000000
126.000000, 0.000000, 4613.846191, 4368.717773, 4665.641113, 4195.897461, 4138.974121, 450.000000, 8023.000000, 8375.000000, 0.000000, 0.000000, 0.000000, 1.000000, 510.099976, 1557645964.265474, 4.000000, 4.000000, 4.000000, 4.000000, 4.000000
127.000000, 0.000000, 4617.948730, 4402.563965, 4707.179199, 4165.641113, 4146.666504, 16187.000000, 8036.000000, 8375.000000, 0.000000, 0.000000, 0.000000, 1.000000, 518.000000, 1557645964.273374, 4.000000, 4.000000, 4.000000, 4.000000, 4.000000
128.000000, 0.000000, 4586.153809, 4381.538574, 4714.871582, 4207.179199, 4127.179199, 500.000000, 8044.000000, 8371.000000, 0.000000, 0.000000, 0.000000, 1.000000, 526.000000, 1557645964.281374, 4.000000, 4.000000, 4.000000, 4.000000, 4.000000
0.000000, 0.000000, 4565.127930, 4372.307617, 4718.461426, 4200.000000, 4116.410156, 500.000000, 8056.000000, 8377.000000, 0.000000, 0.000000, 0.000000, 1.000000, 534.000000, 1557645964.289374, 4.000000, 4.000000, 4.000000, 4.000000, 4.000000
1.000000, 0.000000, 4593.333008, 4434.871582, 4766.153809, 4192.820313, 4162.563965, 500.000000, 8061.000000, 8383.000000, 0.000000, 0.000000, 0.000000, 1.000000, 542.000000, 1557645964.297374, 4.000000, 4.000000, 4.000000, 4.000000, 4.000000
2.000000, 0.000000, 4581.538574, 4457.948730, 4786.666504, 4241.025391, 4176.922852, 16161.000000, 8062.000000, 8377.000000, 0.000000, 0.000000, 0.000000, 1.000000, 549.799988, 1557645964.305174, 4.000000, 4.000000, 4.000000, 4.000000, 4.000000
3.000000, 0.000000, 4514.358887, 4410.256348, 4752.820313, 4273.333008, 4135.384277, 500.000000, 8067.000000, 8374.000000, 0.000000, 0.000000, 0.000000, 1.000000, 557.500000, 1557645964.312874, 4.000000, 4.000000, 4.000000, 4.000000, 4.000000
4.000000, 0.000000, 4477.435547, 4373.846191, 4719.487305, 4235.384277, 4114.358887, 16108.000000, 8072.000000, 8371.000000, 0.000000, 0.000000, 0.000000, 1.000000, 565.299988, 1557645964.320674, 4.000000, 4.000000, 4.000000, 4.000000, 4.000000
5.000000, 0.000000, 4518.974121, 4420.512695, 4740.000000, 4215.897461, 4156.410156, 500.000000, 8082.000000, 8370.000000, 0.000000, 0.000000, 0.000000, 1.000000, 573.099976, 1557645964.328474, 4.000000, 4.000000, 4.000000, 4.000000, 4.000000
6.000000, 0.000000, 4541.025391, 4470.769043, 4762.563965, 4266.153809, 4191.281738, 16118.000000, 8083.000000, 8372.000000, 0.000000, 0.000000, 0.000000, 1.000000, 581.099976, 1557645964.336474, 4.000000, 4.000000, 4.000000, 4.000000, 4.000000
7.000000, 0.000000, 4490.256348, 4428.205078, 4740.000000, 4290.769043, 4162.563965, 500.000000, 8082.000000, 8376.000000, 0.000000, 0.000000, 0.000000, 1.000000, 589.000000, 1557645964.344374, 4.000000, 4.000000, 4.000000, 4.000000, 4.000000
8.000000, 0.000000, 4459.487305, 4369.230469, 4737.948730, 4237.436035, 4125.641113, 500.000000, 8094.000000, 8369.000000, 0.000000, 0.000000, 0.000000, 1.000000, 597.000000, 1557645964.352374, 4.000000, 4.000000, 4.000000, 4.000000, 4.000000
9.000000, 0.000000, 4486.153809, 4402.563965, 4775.897461, 4207.692383, 4131.281738, 16103.000000, 8103.000000, 8361.000000, 0.000000, 0.000000, 0.000000, 1.000000, 605.000000, 1557645964.360374, 4.000000, 4.000000, 4.000000, 4.000000, 4.000000
10.000000, 0.000000, 4490.256348, 4443.076660, 4772.820313, 4234.871582, 4138.461426, 500.000000, 8107.000000, 8377.000000, 0.000000, 0.000000, 0.000000, 1.000000, 612.799988, 1557645964.368174, 4.000000, 4.000000, 4.000000, 4.000000, 4.000000
11.000000, 0.000000, 4449.743652, 4397.948730, 4716.410156, 4222.051270, 4111.794922, 16148.000000, 8109.000000, 8376.000000, 0.000000, 0.000000, 0.000000, 1.000000, 620.599976, 1557645964.375974, 4.000000, 4.000000, 4.000000, 4.000000, 4.000000
12.000000, 0.000000, 4452.307617, 4397.435547, 4723.076660, 4224.102539, 4111.794922, 500.000000, 8115.000000, 8366.000000, 0.000000, 0.000000, 0.000000, 1.000000, 628.299988, 1557645964.383674, 4.000000, 4.000000, 4.000000, 4.000000, 4.000000
13.000000, 0.000000, 4498.461426, 4475.384277, 4803.076660, 4278.974121, 4152.307617, 500.000000, 8123.000000, 8362.000000, 0.000000, 0.000000, 0.000000, 1.000000, 636.200012, 1557645964.391574, 4.000000, 4.000000, 4.000000, 4.000000, 4.000000
14.000000, 0.000000, 4494.358887, 4464.615234, 4825.127930, 4271.794922, 4152.820313, 450.000000, 8122.000000, 8372.000000, 0.000000, 0.000000, 0.000000, 1.000000, 644.200012, 1557645964.399574, 4.000000, 4.000000, 4.000000, 4.000000, 4.000000
15.000000, 0.000000, 4447.692383, 4385.641113, 4778.974121, 4234.358887, 4118.461426, 16148.000000, 8119.000000, 8379.000000, 0.000000, 0.000000, 0.000000, 1.000000, 652.099976, 1557645964.407474, 4.000000, 4.000000, 4.000000, 4.000000, 4.000000
16.000000, 0.000000, 4447.179199, 4387.692383, 4755.897461, 4238.461426, 4122.051270, 0.000000, 8120.000000, 8376.000000, 0.000000, 0.000000, 0.000000, 1.000000, 660.000000, 1557645964.415374, 4.000000, 4.000000, 4.000000, 4.000000, 4.000000
17.000000, 0.000000, 4486.666504, 4438.974121, 4765.127930, 4237.436035, 4152.820313, 0.000000, 8115.000000, 8376.000000, 0.000000, 0.000000, 0.000000, 1.000000, 668.000000, 1557645964.423374, 4.000000, 4.000000, 4.000000, 4.000000, 4.000000
18.000000, 0.000000, 4491.281738, 4441.538574, 4776.410156, 4249.743652, 4156.922852, 0.000000, 8114.000000, 8380.000000, 0.000000, 0.000000, 0.000000, 1.000000, 675.800000, 1557645964.431174, 4.000000, 4.000000, 4.000000, 4.000000, 4.000000
19.000000, 0.000000, 4486.666504, 4434.358887, 4798.974121, 4292.820313, 4159.487305, 0.000000, 8118.000000, 8381.000000, 0.000000, 0.000000, 0.000000, 1.000000, 683.600000, 1557645964.438974, 4.000000, 4.000000, 4.000000, 4.000000, 4.000000
20.000000, 0.000000, 4489.743652, 4419.487305, 4812.307617, 4288.717773, 4160.000000, 0.000000, 8111.000000, 8391.000000, 0.000000, 0.000000, 0.000000, 1.000000, 691.400000, 1557645964.446774, 4.000000, 4.000000, 4.000000, 4.000000, 4.000000
21.000000, 0.000000, 4470.769043, 4401.025391, 4794.358887, 4232.307617, 4135.897461, 0.000000, 8117.000000, 8390.000000, 0.000000, 0.000000, 0.000000, 1.000000, 699.099998, 1557645964.454474, 4.000000, 4.000000, 4.000000, 4.000000, 4.000000
22.000000, 0.000000, 4480.512695, 4450.256348, 4790.256348, 4195.384277, 4139.487305, 0.000000, 8118.000000, 8384.000000, 0.000000, 0.000000, 0.000000, 1.000000, 707.099998, 1557645964.462474, 4.000000, 4.000000, 4.000000, 4.000000, 4.000000
23.000000, 0.000000, 4503.589844, 4474.358887, 4795.384277, 4217.436035, 4152.307617, 0.000000, 8114.000000, 8377.000000, 0.000000, 0.000000, 0.000000, 1.000000, 715.099998, 1557645964.470474, 4.000000, 4.000000, 4.000000, 4.000000, 4.000000
24.000000, 0.000000, 4492.820313, 4431.281738, 4789.743652, 4295.384277, 4157.948730, 0.000000, 8118.000000, 8385.000000, 0.000000, 0.000000, 0.000000, 1.000000, 723.099998, 1557645964.478474, 4.000000, 4.000000, 4.000000, 4.000000, 4.000000
25.000000, 0.000000, 4494.871582, 4433.333008, 4788.205078, 4313.846191, 4184.102539, 0.000000, 8117.000000, 8371.000000, 0.000000, 0.000000, 0.000000, 1.000000, 731.000000, 1557645964.486374, 4.000000, 4.000000, 4.000000, 4.000000, 4.000000
26.000000, 0.000000, 4508.205078, 4461.538574, 4777.435547, 4235.897461, 4190.256348, 0.000000, 8121.000000, 8374.000000, 0.000000, 0.000000, 0.000000, 1.000000, 739.000000, 1557645964.494374, 4.000000, 4.000000, 4.000000, 4.000000, 4.000000
27.000000, 0.000000, 4499.487305, 4447.179199, 4754.871582, 4243.076660, 4166.153809, 0.000000, 8122.000000, 8383.000000, 0.000000, 0.000000, 0.000000, 1.000000, 746.800003, 1557645964.502174, 4.000000, 4.000000, 4.000000, 4.000000, 4.000000
28.000000, 0.000000, 4490.769043, 4428.717773, 4750.256348, 4317.436035, 4166.666504, 0.000000, 8124.000000, 8381.000000, 0.000000, 0.000000, 0.000000, 1.000000, 754.599998, 1557645964.509974, 4.000000, 4.000000, 4.000000, 4.000000, 4.000000
29.000000, 0.000000, 4490.256348, 4426.666504, 4760.512695, 4266.153809, 4172.820313, 0.000000, 8127.000000, 8373.000000, 0.000000, 0.000000, 0.000000, 1.000000, 762.400002, 1557645964.517774, 4.000000, 4.000000, 4.000000, 4.000000, 4.000000
30.000000, 0.000000, 4488.717773, 4428.717773, 4782.563965, 4194.871582, 4154.871582, 0.000000, 8120.000000, 8371.000000, 0.000000, 0.000000, 0.000000, 1.000000, 770.099998, 1557645964.525474, 4.000000, 4.000000, 4.000000, 4.000000, 4.000000
31.000000, 0.000000, 4521.538574, 4475.897461, 4822.563965, 4263.589844, 4165.127930, 0.000000, 8128.000000, 8375.000000, 0.000000, 0.000000, 0.000000, 1.000000, 778.099998, 1557645964.533474, 4.000000, 4.000000, 4.000000, 4.000000, 4.000000
32.000000, 0.000000, 4540.512695, 4489.230469, 4818.974121, 4352.307617, 4183.076660, 0.000000, 8135.000000, 8375.000000, 0.000000, 0.000000, 0.000000, 1.000000, 786.099998, 1557645964.541474, 4.000000, 4.000000, 4.000000, 4.000000, 4.000000
33.000000, 0.000000, 4485.127930, 4409.743652, 4759.487305, 4293.333008, 4147.692383, 0.000000, 8133.000000, 8382.000000, 0.000000, 0.000000, 0.000000, 1.000000, 794.100006, 1557645964.549474, 4.000000, 4.000000, 4.000000, 4.000000, 4.000000
34.000000, 0.000000, 4466.666504, 4414.871582, 4752.307617, 4202.051270, 4137.948730, 0.000000, 8136.000000, 8391.000000, 0.000000, 0.000000, 0.000000, 1.000000, 802.000000, 1557645964.557374, 4.000000, 4.000000, 4.000000, 4.000000, 4.000000
35.000000, 0.000000, 4510.256348, 4489.743652, 4791.794922, 4246.666504, 4172.307617, 0.000000, 8142.000000, 8389.000000, 0.000000, 0.000000, 0.000000, 1.000000, 809.800003, 1557645964.565174, 4.000000, 4.000000, 4.000000, 4.000000, 4.000000
36.000000, 0.000000, 4500.512695, 4452.307617, 4779.487305, 4308.205078, 4154.871582, 0.000000, 8145.000000, 8388.000000, 0.000000, 0.000000, 0.000000, 1.000000, 817.600006, 1557645964.572974, 4.000000, 4.000000, 4.000000, 4.000000, 4.000000
37.000000, 0.000000, 4473.333008, 4404.615234, 4760.512695, 4283.076660, 4130.256348, 0.000000, 8138.000000, 8395.000000, 0.000000, 0.000000, 0.000000, 1.000000, 825.399994, 1557645964.580774, 4.000000, 4.000000, 4.000000, 4.000000, 4.000000
38.000000, 0.000000, 4504.615234, 4460.000000, 4802.051270, 4273.846191, 4174.871582, 0.000000, 8140.000000, 8379.000000, 0.000000, 0.000000, 0.000000, 1.000000, 833.199997, 1557645964.588574, 4.000000, 4.000000, 4.000000, 4.000000, 4.000000
39.000000, 0.000000, 4515.384277, 4472.307617, 4817.435547, 4293.333008, 4192.820313, 0.000000, 8141.000000, 8386.000000, 0.000000, 0.000000, 0.000000, 1.000000, 841.100006, 1557645964.596474, 4.000000, 4.000000, 4.000000, 4.000000, 4.000000
40.000000, 0.000000, 4473.333008, 4419.487305, 4769.743652, 4291.794922, 4149.743652, 0.000000, 8137.000000, 8395.000000, 0.000000, 0.000000, 0.000000, 1.000000, 849.100006, 1557645964.604474, 4.000000, 4.000000, 4.000000, 4.000000, 4.000000
41.000000, 0.000000, 4457.948730, 4399.487305, 4745.641113, 4272.820313, 4140.000000, 0.000000, 8136.000000, 8397.000000, 0.000000, 0.000000, 0.000000, 1.000000, 857.100006, 1557645964.612474, 4.000000, 4.000000, 4.000000, 4.000000, 4.000000
42.000000, 0.000000, 4502.051270, 4468.205078, 4788.717773, 4233.846191, 4190.256348, 0.000000, 8143.000000, 8386.000000, 0.000000, 0.000000, 0.000000, 1.000000, 865.100006, 1557645964.620474, 4.000000, 4.000000, 4.000000, 4.000000, 4.000000
43.000000, 0.000000, 4543.589844, 4555.384277, 4825.641113, 4241.025391, 4229.230469, 0.000000, 8136.000000, 8395.000000, 0.000000, 0.000000, 0.000000, 1.000000, 873.100006, 1557645964.628474, 4.000000, 4.000000, 4.000000, 4.000000, 4.000000
44.000000, 0.000000, 4498.974121, 4475.897461, 4766.153809, 4265.641113, 4188.205078, 0.000000, 8141.000000, 8399.000000, 0.000000, 0.000000, 0.000000, 1.000000, 880.800003, 1557645964.636174, 4.000000, 4.000000, 4.000000, 4.000000, 4.000000
45.000000, 0.000000, 4445.127930, 4373.333008, 4708.717773, 4191.794922, 4142.051270, 0.000000, 8148.000000, 8408.000000, 0.000000, 0.000000, 0.000000, 1.000000, 888.600006, 1557645964.643974, 4.000000, 4.000000, 4.000000, 4.000000, 4.000000
46.000000, 0.000000, 4486.666504, 4457.435547, 4758.461426, 4165.641113, 4180.000000, 0.000000, 8149.000000, 8411.000000, 0.000000, 0.000000, 0.000000, 1.000000, 896.399994, 1557645964.651774, 4.000000, 4.000000, 4.000000, 4.000000, 4.000000
47.000000, 0.000000, 4523.076660, 4505.127930, 4783.076660, 4222.563965, 4212.820313, 0.000000, 8158.000000, 8419.000000, 0.000000, 0.000000, 0.000000, 1.000000, 904.199997, 1557645964.659574, 4.000000, 4.000000, 4.000000, 4.000000, 4.000000
48.000000, 0.000000, 4477.435547, 4412.820313, 4727.179199, 4158.461426, 4173.846191, 0.000000, 8164.000000, 8411.000000, 0.000000, 0.000000, 0.000000, 1.000000, 912.100006, 1557645964.667474, 4.000000, 4.000000, 4.000000, 4.000000, 4.000000
49.000000, 0.000000, 4464.102539, 4437.435547, 4736.410156, 4093.845947, 4164.102539, 0.000000, 8169.000000, 8415.000000, 0.000000, 0.000000, 0.000000, 1.000000, 920.100006, 1557645964.675474, 4.000000, 4.000000, 4.000000, 4.000000, 4.000000
50.000000, 0.000000, 4501.025391, 4512.307617, 4783.076660, 4169.743652, 4196.922852, 0.000000, 8173.000000, 8424.000000, 0.000000, 0.000000, 0.000000, 1.000000, 928.000000, 1557645964.683374, 4.000000, 4.000000, 4.000000, 4.000000, 4.000000
51.000000, 0.000000, 4488.205078, 4443.076660, 4741.025391, 4158.461426, 4168.717773, 0.000000, 8181.000000, 8413.000000, 0.000000, 0.000000, 0.000000, 1.000000, 936.000000, 1557645964.691374, 4.000000, 4.000000, 4.000000, 4.000000, 4.000000
52.000000, 0.000000, 4516.410156, 4461.025391, 4727.692383, 4105.127930, 4168.205078, 0.000000, 8185.000000, 8396.000000, 0.000000, 0.000000, 0.000000, 1.000000, 943.799988, 1557645964.699174, 4.000000, 4.000000, 4.000000, 4.000000, 4.000000
53.000000, 0.000000, 4603.589844, 4572.820313, 4787.179199, 4194.871582, 4243.076660, 0.000000, 8184.000000, 8413.000000, 0.000000, 0.000000, 0.000000, 1.000000, 951.500000, 1557645964.706874, 4.000000, 4.000000, 4.000000, 4.000000, 4.000000
54.000000, 0.000000, 4573.333008, 4521.025391, 4769.230469, 4234.871582, 4222.563965, 0.000000, 8186.000000, 8420.000000, 0.000000, 0.000000, 0.000000, 1.000000, 959.299988, 1557645964.714674, 4.000000, 4.000000, 4.000000, 4.000000, 4.000000
55.000000, 0.000000, 4488.205078, 4433.333008, 4718.974121, 4149.743652, 4141.538574, 0.000000, 8192.000000, 8408.000000, 0.000000, 0.000000, 0.000000, 1.000000, 967.100006, 1557645964.722474, 4.000000, 4.000000, 4.000000, 4.000000, 4.000000
56.000000, 0.000000, 4512.307617, 4475.897461, 4750.256348, 4142.051270, 4163.589844, 0.000000, 8190.000000, 8418.000000, 0.000000, 0.000000, 0.000000, 1.000000, 975.100006, 1557645964.730474, 4.000000, 4.000000, 4.000000, 4.000000, 4.000000
57.000000, 0.000000, 4536.410156, 4485.641113, 4749.743652, 4178.974121, 4184.102539, 0.000000, 8190.000000, 8425.000000, 0.000000, 0.000000, 0.000000, 1.000000, 983.000000, 1557645964.738374, 4.000000, 4.000000, 4.000000, 4.000000, 4.000000
58.000000, 0.000000, 4495.384277, 4460.512695, 4691.281738, 4164.102539, 4132.820313, 0.000000, 8187.000000, 8416.000000, 0.000000, 0.000000, 0.000000, 1.000000, 991.000000, 1557645964.746374, 4.000000, 4.000000, 4.000000, 4.000000, 4.000000
59.000000, 0.000000, 4522.051270, 4543.076660, 4715.897461, 4177.948730, 4158.974121, 0.000000, 8183.000000, 8407.000000, 0.000000, 0.000000, 0.000000, 1.000000, 999.000000, 1557645964.754374, 4.000000, 4.000000, 4.000000, 4.000000, 4.000000
60.000000, 0.000000, 4523.076660, 4541.025391, 4742.051270, 4157.436035, 4178.974121, 0.000000, 8172.000000, 8401.000000, 0.000000, 0.000000, 0.000000, 2.000000, 7.000000, 1557645964.762374, 4.000000, 4.000000, 4.000000, 4.000000, 4.000000
61.000000, 0.000000, 4440.000000, 4407.692383, 4677.435547, 4101.538574, 4102.051270, 0.000000, 8169.000000, 8395.000000, 0.000000, 0.000000, 0.000000, 2.000000, 14.799988, 1557645964.770174, 4.000000, 4.000000, 4.000000, 4.000000, 4.000000
62.000000, 0.000000, 4462.051270, 4425.641113, 4669.743652, 4167.179199, 4110.256348, 0.000000, 8161.000000, 8393.000000, 0.000000, 0.000000, 0.000000, 2.000000, 22.500000, 1557645964.777874, 4.000000, 4.000000, 4.000000, 4.000000, 4.000000
63.000000, 0.000000, 4537.435547, 4558.461426, 4747.692383, 4245.641113, 4194.358887, 0.000000, 8149.000000, 8399.000000, 0.000000, 0.000000, 0.000000, 2.000000, 30.299988, 1557645964.785674, 4.000000, 4.000000, 4.000000, 4.000000, 4.000000
64.000000, 0.000000, 4508.717773, 4543.589844, 4738.461426, 4187.692383, 4187.692383, 500.000000, 8133.000000, 8391.000000, 0.000000, 0.000000, 0.000000, 2.000000, 38.299988, 1557645964.793674, 4.000000, 4.000000, 4.000000, 4.000000, 4.000000
65.000000, 0.000000, 4457.435547, 4453.333008, 4643.589844, 4136.922852, 4134.358887, 500.000000, 8133.000000, 8381.000000, 0.000000, 0.000000, 0.000000, 2.000000, 46.100006, 1557645964.801474, 4.000000, 4.000000, 4.000000, 4.000000, 4.000000
66.000000, 0.000000, 4484.615234, 4492.307617, 4632.307617, 4169.743652, 4146.666504, 16175.000000, 8123.000000, 8372.000000, 0.000000, 0.000000, 0.000000, 2.000000, 54.000000, 1557645964.809374, 4.000000, 4.000000, 4.000000, 4.000000, 4.000000
67.000000, 0.000000, 4524.102539, 4574.871582, 4690.769043, 4188.717773, 4196.922852, 500.000000, 8118.000000, 8371.000000, 0.000000, 0.000000, 0.000000, 2.000000, 62.000000, 1557645964.817374, 4.000000, 4.000000, 4.000000, 4.000000, 4.000000
68.000000, 0.000000, 4507.179199, 4554.871582, 4677.435547, 4214.871582, 4194.871582, 16121.000000, 8117.000000, 8359.000000, 0.000000, 0.000000, 0.000000, 2.000000, 70.000000, 1557645964.825374, 4.000000, 4.000000, 4.000000, 4.000000, 4.000000
69.000000, 0.000000, 4468.205078, 4476.922852, 4605.641113, 4226.666504, 4138.461426, 500.000000, 8113.000000, 8366.000000, 0.000000, 0.000000, 0.000000, 2.000000, 77.799988, 1557645964.833174, 4.000000, 4.000000, 4.000000, 4.000000, 4.000000
70.000000, 0.000000, 4442.563965, 4455.384277, 4563.589844, 4150.256348, 4104.615234, 16117.000000, 8103.000000, 8371.000000, 0.000000, 0.000000, 0.000000, 2.000000, 85.600006, 1557645964.840974, 4.000000, 4.000000, 4.000000, 4.000000, 4.000000
71.000000, 0.000000, 4452.307617, 4509.743652, 4569.230469, 4123.589844, 4138.461426, 500.000000, 8104.000000, 8375.000000, 0.000000, 0.000000, 0.000000, 2.000000, 93.299988, 1557645964.848674, 4.000000, 4.000000, 4.000000, 4.000000, 4.000000
72.000000, 0.000000, 4454.871582, 4518.974121, 4556.410156, 4191.794922, 4165.127930, 500.000000, 8099.000000, 8373.000000, 0.000000, 0.000000, 0.000000, 2.000000, 101.100006, 1557645964.856474, 4.000000, 4.000000, 4.000000, 4.000000, 4.000000
73.000000, 0.000000, 4412.820313, 4454.871582, 4512.307617, 4168.205078, 4128.205078, 16142.000000, 8106.000000, 8379.000000, 0.000000, 0.000000, 0.000000, 2.000000, 109.000000, 1557645964.864374, 4.000000, 4.000000, 4.000000, 4.000000, 4.000000
74.000000, 0.000000, 4418.461426, 4478.461426, 4521.538574, 4087.179443, 4123.076660, 500.000000, 8109.000000, 8385.000000, 0.000000, 0.000000, 0.000000, 2.000000, 117.000000, 1557645964.872374, 4.000000, 4.000000, 4.000000, 4.000000, 4.000000
75.000000, 0.000000, 4474.871582, 4546.153809, 4555.384277, 4142.051270, 4168.717773, 16144.000000, 8104.000000, 8396.000000, 0.000000, 0.000000, 0.000000, 2.000000, 124.899994, 1557645964.880274, 4.000000, 4.000000, 4.000000, 4.000000, 4.000000
76.000000, 0.000000, 4471.794922, 4495.384277, 4526.666504, 4211.281738, 4160.512695, 500.000000, 8100.000000, 8404.000000, 0.000000, 0.000000, 0.000000, 2.000000, 132.899994, 1557645964.888274, 4.000000, 4.000000, 4.000000, 4.000000, 4.000000
77.000000, 0.000000, 4436.922852, 4461.538574, 4496.922852, 4151.281738, 4128.205078, 500.000000, 8091.000000, 8406.000000, 0.000000, 0.000000, 0.000000, 2.000000, 140.899994, 1557645964.896274, 4.000000, 4.000000, 4.000000, 4.000000, 4.000000
78.000000, 0.000000, 4434.358887, 4507.179199, 4490.769043, 4136.922852, 4121.538574, 450.000000, 8091.000000, 8397.000000, 0.000000, 0.000000, 0.000000, 2.000000, 148.700012, 1557645964.904074, 4.000000, 4.000000, 4.000000, 4.000000, 4.000000
79.000000, 0.000000, 4434.871582, 4497.435547, 4459.487305, 4198.974121, 4126.666504, 16144.000000, 8087.000000, 8385.000000, 0.000000, 0.000000, 0.000000, 2.000000, 156.500000, 1557645964.911874, 4.000000, 4.000000, 4.000000, 4.000000, 4.000000
80.000000, 0.000000, 4433.333008, 4471.281738, 4432.820313, 4186.153809, 4160.000000, 450.000000, 8081.000000, 8401.000000, 0.000000, 0.000000, 0.000000, 2.000000, 164.200012, 1557645964.919574, 4.000000, 4.000000, 4.000000, 4.000000, 4.000000
81.000000, 0.000000, 4450.256348, 4500.000000, 4445.641113, 4147.692383, 4197.436035, 450.000000, 8080.000000, 8398.000000, 0.000000, 0.000000, 0.000000, 2.000000, 172.100006, 1557645964.927474, 4.000000, 4.000000, 4.000000, 4.000000, 4.000000
82.000000, 0.000000, 4451.794922, 4504.102539, 4449.230469, 4161.025391, 4180.512695, 450.000000, 8077.000000, 8386.000000, 0.000000, 0.000000, 0.000000, 2.000000, 180.099976, 1557645964.935474, 4.000000, 4.000000, 4.000000, 4.000000, 4.000000
83.000000, 0.000000, 4437.435547, 4466.666504, 4429.230469, 4167.179199, 4161.025391, 16144.000000, 8071.000000, 8392.000000, 0.000000, 0.000000, 0.000000, 2.000000, 188.099976, 1557645964.943474, 4.000000, 4.000000, 4.000000, 4.000000, 4.000000
84.000000, 0.000000, 4430.256348, 4448.717773, 4404.615234, 4155.897461, 4173.333008, 450.000000, 8065.000000, 8387.000000, 0.000000, 0.000000, 0.000000, 2.000000, 196.000000, 1557645964.951374, 4.000000, 4.000000, 4.000000, 4.000000, 4.000000
85.000000, 0.000000, 4427.692383, 4429.743652, 4367.692383, 4204.102539, 4150.256348, 450.000000, 8068.000000, 8375.000000, 0.000000, 0.000000, 0.000000, 2.000000, 203.799988, 1557645964.959174, 4.000000, 4.000000, 4.000000, 4.000000, 4.000000
86.000000, 0.000000, 4441.538574, 4426.153809, 4364.102539, 4212.307617, 4124.615234, 450.000000, 8062.000000, 8371.000000, 0.000000, 0.000000, 0.000000, 2.000000, 211.599976, 1557645964.966974, 4.000000, 4.000000, 4.000000, 4.000000, 4.000000
87.000000, 0.000000, 4450.769043, 4470.256348, 4403.589844, 4148.205078, 4155.384277, 16144.000000, 8063.000000, 8374.000000, 0.000000, 0.000000, 0.000000, 2.000000, 219.400024, 1557645964.974774, 4.000000, 4.000000, 4.000000, 4.000000, 4.000000
88.000000, 0.000000, 4451.281738, 4496.922852, 4417.948730, 4182.563965, 4191.794922, 450.000000, 8077.000000, 8369.000000, 0.000000, 0.000000, 0.000000, 2.000000, 227.400024, 1557645964.982774, 4.000000, 4.000000, 4.000000, 4.000000, 4.000000
89.000000, 0.000000, 4446.666504, 4450.769043, 4394.871582, 4241.538574, 4177.948730, 450.000000, 8074.000000, 8367.000000, 0.000000, 0.000000, 0.000000, 2.000000, 235.099976, 1557645964.990474, 4.000000, 4.000000, 4.000000, 4.000000, 4.000000
90.000000, 0.000000, 4428.205078, 4422.563965, 4389.743652, 4186.666504, 4152.820313, 450.000000, 8080.000000, 8356.000000, 0.000000, 0.000000, 0.000000, 2.000000, 243.099976, 1557645964.998474, 4.000000, 4.000000, 4.000000, 4.000000, 4.000000
91.000000, 0.000000, 4424.615234, 4465.641113, 4416.922852, 4153.333008, 4160.512695, 16144.000000, 8091.000000, 8340.000000, 0.000000, 0.000000, 0.000000, 2.000000, 251.099976, 1557645965.006474, 4.000000, 4.000000, 4.000000, 4.000000, 4.000000
92.000000, 0.000000, 4432.820313, 4478.974121, 4418.461426, 4206.666504, 4161.538574, 450.000000, 8103.000000, 8336.000000, 0.000000, 0.000000, 0.000000, 2.000000, 258.900024, 1557645965.014274, 4.000000, 4.000000, 4.000000, 4.000000, 4.000000
93.000000, 0.000000, 4432.820313, 4465.641113, 4389.230469, 4189.743652, 4155.384277, 450.000000, 8102.000000, 8336.000000, 0.000000, 0.000000, 0.000000, 2.000000, 266.799988, 1557645965.022174, 4.000000, 4.000000, 4.000000, 4.000000, 4.000000
94.000000, 0.000000, 4418.974121, 4438.461426, 4363.076660, 4166.153809, 4154.358887, 450.000000, 8111.000000, 8326.000000, 0.000000, 0.000000, 0.000000, 2.000000, 274.599976, 1557645965.029974, 4.000000, 4.000000, 4.000000, 4.000000, 4.000000
95.000000, 0.000000, 4417.948730, 4430.769043, 4374.871582, 4224.102539, 4154.358887, 16144.000000, 8125.000000, 8313.000000, 0.000000, 0.000000, 0.000000, 2.000000, 282.400024, 1557645965.037774, 4.000000, 4.000000, 4.000000, 4.000000, 4.000000
96.000000, 0.000000, 4434.871582, 4468.205078, 4413.846191, 4208.205078, 4166.666504, 450.000000, 8137.000000, 8306.000000, 0.000000, 0.000000, 0.000000, 2.000000, 290.200012, 1557645965.045574, 4.000000, 4.000000, 4.000000, 4.000000, 4.000000
97.000000, 0.000000, 4441.538574, 4482.051270, 4423.589844, 4175.897461, 4182.051270, 450.000000, 8134.000000, 8314.000000, 0.000000, 0.000000, 0.000000, 2.000000, 298.099976, 1557645965.053474, 4.000000, 4.000000, 4.000000, 4.000000, 4.000000
98.000000, 0.000000, 4420.000000, 4446.153809, 4404.102539, 4232.820313, 4165.641113, 450.000000, 8147.000000, 8303.000000, 0.000000, 0.000000, 0.000000, 2.000000, 306.000000, 1557645965.061374, 4.000000, 4.000000, 4.000000, 4.000000, 4.000000
99.000000, 0.000000, 4426.666504, 4458.461426, 4405.127930, 4286.666504, 4165.127930, 16144.000000, 8149.000000, 8297.000000, 0.000000, 0.000000, 0.000000, 2.000000, 314.000000, 1557645965.069374, 4.000000, 4.000000, 4.000000, 4.000000, 4.000000
100.000000, 0.000000, 4460.000000, 4495.897461, 4402.563965, 4253.333008, 4190.256348, 450.000000, 8147.000000, 8302.000000, 0.000000, 0.000000, 0.000000, 2.000000, 322.000000, 1557645965.077374, 4.000000, 4.000000, 4.000000, 4.000000, 4.000000
101.000000, 0.000000, 4445.127930, 4455.897461, 4356.410156, 4202.563965, 4161.538574, 450.000000, 8146.000000, 8305.000000, 0.000000, 0.000000, 0.000000, 2.000000, 330.000000, 1557645965.085374, 4.000000, 4.000000, 4.000000, 4.000000, 4.000000
102.000000, 0.000000, 4419.487305, 4418.461426, 4331.281738, 4197.436035, 4121.538574, 450.000000, 8142.000000, 8306.000000, 0.000000, 0.000000, 0.000000, 2.000000, 337.700012, 1557645965.093074, 4.000000, 4.000000, 4.000000, 4.000000, 4.000000
103.000000, 0.000000, 4443.076660, 4452.307617, 4356.410156, 4200.000000, 4152.820313, 16144.000000, 8142.000000, 8301.000000, 0.000000, 0.000000, 0.000000, 2.000000, 345.500000, 1557645965.100874, 4.000000, 4.000000, 4.000000, 4.000000, 4.000000
104.000000, 0.000000, 4476.922852, 4511.281738, 4386.666504, 4237.436035, 4211.281738, 450.000000, 8145.000000, 8297.000000, 0.000000, 0.000000, 0.000000, 2.000000, 353.299988, 1557645965.108674, 4.000000, 4.000000, 4.000000, 4.000000, 4.000000
105.000000, 0.000000, 4462.563965, 4512.820313, 4375.897461, 4294.871582, 4206.666504, 450.000000, 8145.000000, 8286.000000, 0.000000, 0.000000, 0.000000, 2.000000, 361.200012, 1557645965.116574, 4.000000, 4.000000, 4.000000, 4.000000, 4.000000
106.000000, 0.000000, 4421.025391, 4444.102539, 4327.692383, 4283.076660, 4151.281738, 450.000000, 8136.000000, 8288.000000, 0.000000, 0.000000, 0.000000, 2.000000, 369.200012, 1557645965.124574, 4.000000, 4.000000, 4.000000, 4.000000, 4.000000
107.000000, 0.000000, 4405.641113, 4413.333008, 4301.025391, 4218.461426, 4133.333008, 16144.000000, 8130.000000, 8277.000000, 0.000000, 0.000000, 0.000000, 2.000000, 377.099976, 1557645965.132474, 4.000000, 4.000000, 4.000000, 4.000000, 4.000000
108.000000, 0.000000, 4417.435547, 4442.563965, 4315.897461, 4209.743652, 4157.948730, 450.000000, 8129.000000, 8260.000000, 0.000000, 0.000000, 0.000000, 2.000000, 385.099976, 1557645965.140474, 4.000000, 4.000000, 4.000000, 4.000000, 4.000000
109.000000, 0.000000, 4435.897461, 4468.205078, 4328.717773, 4268.205078, 4157.436035, 450.000000, 8132.000000, 8265.000000, 0.000000, 0.000000, 0.000000, 2.000000, 393.099976, 1557645965.148474, 4.000000, 4.000000, 4.000000, 4.000000, 4.000000
110.000000, 0.000000, 4452.307617, 4491.794922, 4329.743652, 4302.051270, 4154.358887, 450.000000, 8126.000000, 8282.000000, 0.000000, 0.000000, 0.000000, 2.000000, 400.900024, 1557645965.156274, 4.000000, 4.000000, 4.000000, 4.000000, 4.000000
111.000000, 0.000000, 4438.461426, 4481.538574, 4321.538574, 4257.948730, 4166.666504, 16144.000000, 8126.000000, 8286.000000, 0.000000, 0.000000, 0.000000, 2.000000, 408.599976, 1557645965.163974, 4.000000, 4.000000, 4.000000, 4.000000, 4.000000
112.000000, 0.000000, 4410.769043, 4428.717773, 4298.461426, 4220.000000, 4145.127930, 450.000000, 8123.000000, 8281.000000, 0.000000, 0.000000, 0.000000, 2.000000, 416.400024, 1557645965.171774, 4.000000, 4.000000, 4.000000, 4.000000, 4.000000
113.000000, 0.000000, 4421.025391, 4425.641113, 4291.794922, 4267.179199, 4128.717773, 450.000000, 8129.000000, 8290.000000, 0.000000, 0.000000, 0.000000, 2.000000, 424.200012, 1557645965.179574, 4.000000, 4.000000, 4.000000, 4.000000, 4.000000
114.000000, 0.000000, 4426.153809, 4464.102539, 4300.000000, 4298.974121, 4148.205078, 450.000000, 8125.000000, 8297.000000, 0.000000, 0.000000, 0.000000, 2.000000, 432.099976, 1557645965.187474, 4.000000, 4.000000, 4.000000, 4.000000, 4.000000
115.000000, 0.000000, 4402.051270, 4459.487305, 4281.025391, 4227.692383, 4157.948730, 16144.000000, 8130.000000, 8299.000000, 0.000000, 0.000000, 0.000000, 2.000000, 440.099976, 1557645965.195474, 4.000000, 4.000000, 4.000000, 4.000000, 4.000000
116.000000, 0.000000, 4428.717773, 4457.948730, 4264.615234, 4224.102539, 4171.281738, 450.000000, 8128.000000, 8308.000000, 0.000000, 0.000000, 0.000000, 2.000000, 448.000000, 1557645965.203374, 4.000000, 4.000000, 4.000000, 4.000000, 4.000000
117.000000, 0.000000, 4464.615234, 4483.076660, 4281.025391, 4340.000000, 4187.179199, 450.000000, 8133.000000, 8308.000000, 0.000000, 0.000000, 0.000000, 2.000000, 456.000000, 1557645965.211374, 4.000000, 4.000000, 4.000000, 4.000000, 4.000000
118.000000, 0.000000, 4398.974121, 4441.025391, 4265.127930, 4307.179199, 4150.256348, 450.000000, 8136.000000, 8318.000000, 0.000000, 0.000000, 0.000000, 2.000000, 464.000000, 1557645965.219374, 4.000000, 4.000000, 4.000000, 4.000000, 4.000000
119.000000, 0.000000, 4349.743652, 4396.922852, 4234.358887, 4204.102539, 4122.563965, 16144.000000, 8135.000000, 8326.000000, 0.000000, 0.000000, 0.000000, 2.000000, 471.799988, 1557645965.227174, 4.000000, 4.000000, 4.000000, 4.000000, 4.000000
120.000000, 0.000000, 4434.871582, 4460.512695, 4274.358887, 4292.820313, 4184.615234, 450.000000, 8136.000000, 8322.000000, 0.000000, 0.000000, 0.000000, 2.000000, 479.599976, 1557645965.234974, 4.000000, 4.000000, 4.000000, 4.000000, 4.000000
121.000000, 0.000000, 4489.743652, 4516.410156, 4306.666504, 4354.871582, 4234.358887, 450.000000, 8142.000000, 8316.000000, 0.000000, 0.000000, 0.000000, 2.000000, 487.299988, 1557645965.242674, 4.000000, 4.000000, 4.000000, 4.000000, 4.000000
122.000000, 0.000000, 4409.743652, 4434.358887, 4246.153809, 4266.153809, 4180.512695, 450.000000, 8141.000000, 8320.000000, 0.000000, 0.000000, 0.000000, 2.000000, 495.099976, 1557645965.250474, 4.000000, 4.000000, 4.000000, 4.000000, 4.000000
123.000000, 0.000000, 4369.230469, 4376.922852, 4215.897461, 4277.948730, 4145.641113, 16144.000000, 8136.000000, 8329.000000, 0.000000, 0.000000, 0.000000, 2.000000, 503.000000, 1557645965.258374, 4.000000, 4.000000, 4.000000, 4.000000, 4.000000
124.000000, 0.000000, 4440.000000, 4472.307617, 4277.948730, 4338.461426, 4215.384277, 450.000000, 8134.000000, 8336.000000, 0.000000, 0.000000, 0.000000, 2.000000, 511.000000, 1557645965.266374, 4.000000, 4.000000, 4.000000, 4.000000, 4.000000
125.000000, 0.000000, 4453.846191, 4498.974121, 4278.461426, 4281.538574, 4241.538574, 450.000000, 8133.000000, 8322.000000, 0.000000, 0.000000, 0.000000, 2.000000, 518.900024, 1557645965.274274, 4.000000, 4.000000, 4.000000, 4.000000, 4.000000
126.000000, 0.000000, 4413.846191, 4441.025391, 4236.922852, 4310.769043, 4202.563965, 450.000000, 8135.000000, 8318.000000, 0.000000, 0.000000, 0.000000, 2.000000, 526.900024, 1557645965.282274, 4.000000, 4.000000, 4.000000, 4.000000, 4.000000
127.000000, 0.000000, 4426.666504, 4464.615234, 4266.666504, 4379.487305, 4220.000000, 16144.000000, 8139.000000, 8324.000000, 0.000000, 0.000000, 0.000000, 2.000000, 534.700012, 1557645965.290074, 4.000000, 4.000000, 4.000000, 4.000000, 4.000000
128.000000, 0.000000, 4435.897461, 4474.871582, 4275.384277, 4315.897461, 4238.461426, 500.000000, 8138.000000, 8321.000000, 0.000000, 0.000000, 0.000000, 2.000000, 542.500000, 1557645965.297874, 4.000000, 4.000000, 4.000000, 4.000000, 4.000000
0.000000, 0.000000, 4394.871582, 4402.563965, 4227.692383, 4279.487305, 4186.666504, 500.000000, 8130.000000, 8328.000000, 0.000000, 0.000000, 0.000000, 2.000000, 550.400024, 1557645965.305774, 4.000000, 4.000000, 4.000000, 4.000000, 4.000000
1.000000, 0.000000, 4386.153809, 4401.538574, 4229.230469, 4318.974121, 4168.205078, 500.000000, 8129.000000, 8325.000000, 0.000000, 0.000000, 0.000000, 2.000000, 558.099976, 1557645965.313474, 4.000000, 4.000000, 4.000000, 4.000000, 4.000000
2.000000, 0.000000, 4430.769043, 4483.589844, 4271.281738, 4314.358887, 4211.794922, 16181.000000, 8129.000000, 8319.000000, 0.000000, 0.000000, 0.000000, 2.000000, 566.099976, 1557645965.321474, 4.000000, 4.000000, 4.000000, 4.000000, 4.000000
3.000000, 0.000000, 4449.743652, 4498.461426, 4280.000000, 4307.692383, 4225.127930, 500.000000, 8134.000000, 8322.000000, 0.000000, 0.000000, 0.000000, 2.000000, 574.099976, 1557645965.329474, 4.000000, 4.000000, 4.000000, 4.000000, 4.000000
4.000000, 0.000000, 4428.205078, 4463.076660, 4274.358887, 4363.589844, 4211.281738, 16139.000000, 8135.000000, 8318.000000, 0.000000, 0.000000, 0.000000, 2.000000, 582.099976, 1557645965.337474, 4.000000, 4.000000, 4.000000, 4.000000, 4.000000
5.000000, 0.000000, 4412.820313, 4460.000000, 4281.538574, 4397.435547, 4204.615234, 500.000000, 8139.000000, 8307.000000, 0.000000, 0.000000, 0.000000, 2.000000, 590.000000, 1557645965.345374, 4.000000, 4.000000, 4.000000, 4.000000, 4.000000
6.000000, 0.000000, 4410.769043, 4448.717773, 4270.769043, 4388.205078, 4191.281738, 16132.000000, 8146.000000, 8311.000000, 0.000000, 0.000000, 0.000000, 2.000000, 598.000000, 1557645965.353374, 4.000000, 4.000000, 4.000000, 4.000000, 4.000000
7.000000, 0.000000, 4415.384277, 4443.076660, 4261.025391, 4365.641113, 4196.410156, 500.000000, 8143.000000, 8322.000000, 0.000000, 0.000000, 0.000000, 2.000000, 605.799988, 1557645965.361174, 4.000000, 4.000000, 4.000000, 4.000000, 4.000000
8.000000, 0.000000, 4429.230469, 4492.820313, 4292.307617, 4329.743652, 4227.179199, 500.000000, 8150.000000, 8321.000000, 0.000000, 0.000000, 0.000000, 2.000000, 613.599976, 1557645965.368974, 4.000000, 4.000000, 4.000000, 4.000000, 4.000000
9.000000, 0.000000, 4432.820313, 4515.384277, 4315.384277, 4326.666504, 4230.256348, 16109.000000, 8155.000000, 8311.000000, 0.000000, 0.000000, 0.000000, 2.000000, 621.400024, 1557645965.376774, 4.000000, 4.000000, 4.000000, 4.000000, 4.000000
10.000000, 0.000000, 4409.230469, 4442.051270, 4290.256348, 4384.615234, 4205.127930, 500.000000, 8157.000000, 8316.000000, 0.000000, 0.000000, 0.000000, 2.000000, 629.099976, 1557645965.384474, 4.000000, 4.000000, 4.000000, 4.000000, 4.000000
11.000000, 0.000000, 4409.230469, 4429.230469, 4281.538574, 4398.974121, 4218.974121, 16162.000000, 8158.000000, 8324.000000, 0.000000, 0.000000, 0.000000, 2.000000, 637.099976, 1557645965.392474, 4.000000, 4.000000, 4.000000, 4.000000, 4.000000
12.000000, 0.000000, 4434.871582, 4506.666504, 4303.589844, 4332.820313, 4245.127930, 500.000000, 8168.000000, 8324.000000, 0.000000, 0.000000, 0.000000, 2.000000, 645.099976, 1557645965.400474, 4.000000, 4.000000, 4.000000, 4.000000, 4.000000
13.000000, 0.000000, 4442.563965, 4497.435547, 4299.487305, 4343.589844, 4227.692383, 500.000000, 8170.000000, 8330.000000, 0.000000, 0.000000, 0.000000, 2.000000, 653.099976, 1557645965.408474, 4.000000, 4.000000, 4.000000, 4.000000, 4.000000
14.000000, 0.000000, 4433.333008, 4432.820313, 4274.358887, 4404.615234, 4201.538574, 450.000000, 8173.000000, 8347.000000, 0.000000, 0.000000, 0.000000, 2.000000, 661.000000, 1557645965.416374, 4.000000, 4.000000, 4.000000, 4.000000, 4.000000
15.000000, 0.000000, 4434.358887, 4459.487305, 4281.025391, 4377.435547, 4221.538574, 16162.000000, 8169.000000, 8346.000000, 0.000000, 0.000000, 0.000000, 2.000000, 668.800000, 1557645965.424174, 4.000000, 4.000000, 4.000000, 4.000000, 4.000000
16.000000, 0.000000, 4451.794922, 4507.179199, 4299.487305, 4321.025391, 4256.410156, 0.000000, 8166.000000, 8356.000000, 0.000000, 0.000000, 0.000000, 2.000000, 676.600000, 1557645965.431974, 4.000000, 4.000000, 4.000000, 4.000000, 4.000000
17.000000, 0.000000, 4469.743652, 4507.179199, 4290.256348, 4367.179199, 4259.487305, 0.000000, 8159.000000, 8371.000000, 0.000000, 0.000000, 0.000000, 2.000000, 684.400000, 1557645965.439774, 4.000000, 4.000000, 4.000000, 4.000000, 4.000000
18.000000, 0.000000, 4466.666504, 4506.153809, 4272.307617, 4442.563965, 4246.153809, 0.000000, 8163.000000, 8365.000000, 0.000000, 0.000000, 0.000000, 2.000000, 692.200001, 1557645965.447574, 4.000000, 4.000000, 4.000000, 4.000000, 4.000000
19.000000, 0.000000, 4433.333008, 4475.897461, 4249.743652, 4413.333008, 4214.358887, 0.000000, 8159.000000, 8370.000000, 0.000000, 0.000000, 0.000000, 2.000000, 700.099998, 1557645965.455474, 4.000000, 4.000000, 4.000000, 4.000000, 4.000000
20.000000, 0.000000, 4425.641113, 4447.692383, 4231.281738, 4320.512695, 4191.794922, 0.000000, 8155.000000, 8384.000000, 0.000000, 0.000000, 0.000000, 2.000000, 708.099998, 1557645965.463474, 4.000000, 4.000000, 4.000000, 4.000000, 4.000000
21.000000, 0.000000, 4458.974121, 4486.666504, 4248.205078, 4297.436035, 4211.794922, 0.000000, 8155.000000, 8385.000000, 0.000000, 0.000000, 0.000000, 2.000000, 716.099998, 1557645965.471474, 4.000000, 4.000000, 4.000000, 4.000000, 4.000000
22.000000, 0.000000, 4452.307617, 4475.384277, 4256.410156, 4377.948730, 4206.666504, 0.000000, 8166.000000, 8381.000000, 0.000000, 0.000000, 0.000000, 2.000000, 723.900002, 1557645965.479274, 4.000000, 4.000000, 4.000000, 4.000000, 4.000000
23.000000, 0.000000, 4416.922852, 4422.563965, 4236.922852, 4426.666504, 4172.820313, 0.000000, 8151.000000, 8395.000000, 0.000000, 0.000000, 0.000000, 2.000000, 731.800003, 1557645965.487174, 4.000000, 4.000000, 4.000000, 4.000000, 4.000000
24.000000, 0.000000, 4447.179199, 4489.743652, 4254.358887, 4403.076660, 4207.692383, 0.000000, 8144.000000, 8403.000000, 0.000000, 0.000000, 0.000000, 2.000000, 739.599998, 1557645965.494974, 4.000000, 4.000000, 4.000000, 4.000000, 4.000000
25.000000, 0.000000, 4495.384277, 4551.794922, 4274.871582, 4370.256348, 4255.897461, 0.000000, 8149.000000, 8395.000000, 0.000000, 0.000000, 0.000000, 2.000000, 747.400002, 1557645965.502774, 4.000000, 4.000000, 4.000000, 4.000000, 4.000000
26.000000, 0.000000, 4448.205078, 4449.743652, 4233.846191, 4353.846191, 4214.871582, 0.000000, 8149.000000, 8391.000000, 0.000000, 0.000000, 0.000000, 2.000000, 755.199997, 1557645965.510574, 4.000000, 4.000000, 4.000000, 4.000000, 4.000000
27.000000, 0.000000, 4376.410156, 4387.179199, 4197.436035, 4326.153809, 4167.179199, 0.000000, 8152.000000, 8390.000000, 0.000000, 0.000000, 0.000000, 2.000000, 763.099998, 1557645965.518474, 4.000000, 4.000000, 4.000000, 4.000000, 4.000000
28.000000, 0.000000, 4384.102539, 4451.281738, 4209.230469, 4311.281738, 4184.615234, 0.000000, 8162.000000, 8388.000000, 0.000000, 0.000000, 0.000000, 2.000000, 771.000000, 1557645965.526374, 4.000000, 4.000000, 4.000000, 4.000000, 4.000000
29.000000, 0.000000, 4433.846191, 4487.692383, 4232.820313, 4356.922852, 4211.281738, 0.000000, 8159.000000, 8381.000000, 0.000000, 0.000000, 0.000000, 2.000000, 779.000000, 1557645965.534374, 4.000000, 4.000000, 4.000000, 4.000000, 4.000000
30.000000, 0.000000, 4441.538574, 4461.538574, 4232.307617, 4368.717773, 4187.692383, 0.000000, 8164.000000, 8387.000000, 0.000000, 0.000000, 0.000000, 2.000000, 787.000000, 1557645965.542374, 4.000000, 4.000000, 4.000000, 4.000000, 4.000000
31.000000, 0.000000, 4409.230469, 4432.820313, 4218.461426, 4326.153809, 4151.794922, 0.000000, 8169.000000, 8382.000000, 0.000000, 0.000000, 0.000000, 2.000000, 794.800003, 1557645965.550174, 4.000000, 4.000000, 4.000000, 4.000000, 4.000000
32.000000, 0.000000, 4408.205078, 4449.230469, 4232.820313, 4325.127930, 4168.717773, 0.000000, 8182.000000, 8394.000000, 0.000000, 0.000000, 0.000000, 2.000000, 802.500000, 1557645965.557874, 4.000000, 4.000000, 4.000000, 4.000000, 4.000000
33.000000, 0.000000, 4432.820313, 4477.948730, 4253.333008, 4340.000000, 4182.051270, 0.000000, 8181.000000, 8402.000000, 0.000000, 0.000000, 0.000000, 2.000000, 810.399994, 1557645965.565774, 4.000000, 4.000000, 4.000000, 4.000000, 4.000000
34.000000, 0.000000, 4427.179199, 4456.410156, 4235.897461, 4322.051270, 4139.487305, 0.000000, 8183.000000, 8407.000000, 0.000000, 0.000000, 0.000000, 2.000000, 818.199997, 1557645965.573574, 4.000000, 4.000000, 4.000000, 4.000000, 4.000000
35.000000, 0.000000, 4414.358887, 4457.948730, 4228.205078, 4305.127930, 4133.846191, 0.000000, 8186.000000, 8398.000000, 0.000000, 0.000000, 0.000000, 2.000000, 826.100006, 1557645965.581474, 4.000000, 4.000000, 4.000000, 4.000000, 4.000000
36.000000, 0.000000, 4407.179199, 4464.102539, 4245.127930, 4286.153809, 4161.538574, 0.000000, 8178.000000, 8393.000000, 0.000000, 0.000000, 0.000000, 2.000000, 834.100006, 1557645965.589474, 4.000000, 4.000000, 4.000000, 4.000000, 4.000000
37.000000, 0.000000, 4393.333008, 4409.743652, 4230.769043, 4297.948730, 4132.307617, 0.000000, 8168.000000, 8398.000000, 0.000000, 0.000000, 0.000000, 2.000000, 842.000000, 1557645965.597374, 4.000000, 4.000000, 4.000000, 4.000000, 4.000000
38.000000, 0.000000, 4404.615234, 4425.127930, 4226.153809, 4363.076660, 4113.846191, 0.000000, 8168.000000, 8391.000000, 0.000000, 0.000000, 0.000000, 2.000000, 850.000000, 1557645965.605374, 4.000000, 4.000000, 4.000000, 4.000000, 4.000000
39.000000, 0.000000, 4405.127930, 4469.230469, 4238.974121, 4324.102539, 4126.666504, 0.000000, 8164.000000, 8379.000000, 0.000000, 0.000000, 0.000000, 2.000000, 858.000000, 1557645965.613374, 4.000000, 4.000000, 4.000000, 4.000000, 4.000000
40.000000, 0.000000, 4366.153809, 4406.666504, 4216.922852, 4228.717773, 4098.461426, 0.000000, 8155.000000, 8364.000000, 0.000000, 0.000000, 0.000000, 2.000000, 865.800003, 1557645965.621174, 4.000000, 4.000000, 4.000000, 4.000000, 4.000000
41.000000, 0.000000, 4364.102539, 4380.512695, 4205.127930, 4277.948730, 4076.410156, 0.000000, 8158.000000, 8362.000000, 0.000000, 0.000000, 0.000000, 2.000000, 873.500000, 1557645965.628874, 4.000000, 4.000000, 4.000000, 4.000000, 4.000000
42.000000, 0.000000, 4393.333008, 4445.641113, 4236.922852, 4340.512695, 4100.512695, 0.000000, 8161.000000, 8365.000000, 0.000000, 0.000000, 0.000000, 2.000000, 881.300003, 1557645965.636674, 4.000000, 4.000000, 4.000000, 4.000000, 4.000000
43.000000, 0.000000, 4401.538574, 4463.589844, 4283.589844, 4317.436035, 4121.538574, 0.000000, 8157.000000, 8371.000000, 0.000000, 0.000000, 0.000000, 2.000000, 889.100006, 1557645965.644474, 4.000000, 4.000000, 4.000000, 4.000000, 4.000000
44.000000, 0.000000, 4421.025391, 4464.102539, 4322.051270, 4343.076660, 4136.922852, 0.000000, 8158.000000, 8361.000000, 0.000000, 0.000000, 0.000000, 2.000000, 897.100006, 1557645965.652474, 4.000000, 4.000000, 4.000000, 4.000000, 4.000000
45.000000, 0.000000, 4403.589844, 4445.641113, 4293.333008, 4349.743652, 4123.076660, 0.000000, 8160.000000, 8362.000000, 0.000000, 0.000000, 0.000000, 2.000000, 905.100006, 1557645965.660474, 4.000000, 4.000000, 4.000000, 4.000000, 4.000000
46.000000, 0.000000, 4348.717773, 4391.281738, 4228.205078, 4286.666504, 4073.845947, 0.000000, 8154.000000, 8379.000000, 0.000000, 0.000000, 0.000000, 2.000000, 913.000000, 1557645965.668374, 4.000000, 4.000000, 4.000000, 4.000000, 4.000000
47.000000, 0.000000, 4348.205078, 4408.717773, 4219.487305, 4297.436035, 4051.281982, 0.000000, 8159.000000, 8384.000000, 0.000000, 0.000000, 0.000000, 2.000000, 921.000000, 1557645965.676374, 4.000000, 4.000000, 4.000000, 4.000000, 4.000000
48.000000, 0.000000, 4357.948730, 4436.922852, 4231.794922, 4312.820313, 4046.666504, 0.000000, 8160.000000, 8375.000000, 0.000000, 0.000000, 0.000000, 2.000000, 929.000000, 1557645965.684374, 4.000000, 4.000000, 4.000000, 4.000000, 4.000000
49.000000, 0.000000, 4356.410156, 4430.256348, 4233.846191, 4288.717773, 4056.923096, 0.000000, 8158.000000, 8382.000000, 0.000000, 0.000000, 0.000000, 2.000000, 936.799988, 1557645965.692174, 4.000000, 4.000000, 4.000000, 4.000000, 4.000000
50.000000, 0.000000, 4380.000000, 4445.641113, 4223.589844, 4348.717773, 4073.845947, 0.000000, 8153.000000, 8389.000000, 0.000000, 0.000000, 0.000000, 2.000000, 944.500000, 1557645965.699874, 4.000000, 4.000000, 4.000000, 4.000000, 4.000000
51.000000, 0.000000, 4377.948730, 4430.769043, 4178.974121, 4352.820313, 4050.256348, 0.000000, 8152.000000, 8394.000000, 0.000000, 0.000000, 0.000000, 2.000000, 952.299988, 1557645965.707674, 4.000000, 4.000000, 4.000000, 4.000000, 4.000000
52.000000, 0.000000, 4348.205078, 4402.563965, 4142.051270, 4242.051270, 4026.666504, 0.000000, 8150.000000, 8387.000000, 0.000000, 0.000000, 0.000000, 2.000000, 960.100006, 1557645965.715474, 4.000000, 4.000000, 4.000000, 4.000000, 4.000000
53.000000, 0.000000, 4368.205078, 4455.384277, 4164.615234, 4266.153809, 4056.410156, 0.000000, 8152.000000, 8387.000000, 0.000000, 0.000000, 0.000000, 2.000000, 968.100006, 1557645965.723474, 4.000000, 4.000000, 4.000000, 4.000000, 4.000000
54.000000, 0.000000, 4395.897461, 4488.717773, 4189.230469, 4406.153809, 4069.743408, 0.000000, 8153.000000, 8391.000000, 0.000000, 0.000000, 0.000000, 2.000000, 976.100006, 1557645965.731474, 4.000000, 4.000000, 4.000000, 4.000000, 4.000000
55.000000, 0.000000, 4371.794922, 4434.358887, 4163.076660, 4370.769043, 4035.384521, 0.000000, 8150.000000, 8383.000000, 0.000000, 0.000000, 0.000000, 2.000000, 984.000000, 1557645965.739374, 4.000000, 4.000000, 4.000000, 4.000000, 4.000000
56.000000, 0.000000, 4340.512695, 4401.538574, 4128.717773, 4228.205078, 4010.256348, 0.000000, 8144.000000, 8378.000000, 0.000000, 0.000000, 0.000000, 2.000000, 992.000000, 1557645965.747374, 4.000000, 4.000000, 4.000000, 4.000000, 4.000000
57.000000, 0.000000, 4364.102539, 4458.461426, 4153.846191, 4268.717773, 4047.692139, 0.000000, 8140.000000, 8371.000000, 0.000000, 0.000000, 0.000000, 2.000000, 999.799988, 1557645965.755174, 4.000000, 4.000000, 4.000000, 4.000000, 4.000000
58.000000, 0.000000, 4392.307617, 4495.897461, 4194.871582, 4389.743652, 4096.922852, 0.000000, 8145.000000, 8359.000000, 0.000000, 0.000000, 0.000000, 3.000000, 7.600006, 1557645965.762974, 4.000000, 4.000000, 4.000000, 4.000000, 4.000000
59.000000, 0.000000, 4352.820313, 4440.512695, 4166.153809, 4349.743652, 4064.102539, 0.000000, 8145.000000, 8366.000000, 0.000000, 0.000000, 0.000000, 3.000000, 15.299988, 1557645965.770674, 4.000000, 4.000000, 4.000000, 4.000000, 4.000000
60.000000, 0.000000, 4327.692383, 4412.820313, 4132.307617, 4286.666504, 4014.358887, 0.000000, 8138.000000, 8375.000000, 0.000000, 0.000000, 0.000000, 3.000000, 23.100006, 1557645965.778474, 4.000000, 4.000000, 4.000000, 4.000000, 4.000000
61.000000, 0.000000, 4361.025391, 4442.563965, 4150.256348, 4356.410156, 4019.487061, 0.000000, 8146.000000, 8363.000000, 0.000000, 0.000000, 0.000000, 3.000000, 31.100006, 1557645965.786474, 4.000000, 4.000000, 4.000000, 4.000000, 4.000000
62.000000, 0.000000, 4361.025391, 4431.794922, 4150.256348, 4361.538574, 4022.051270, 0.000000, 8157.000000, 8362.000000, 0.000000, 0.000000, 0.000000, 3.000000, 39.100006, 1557645965.794474, 4.000000, 4.000000, 4.000000, 4.000000, 4.000000
63.000000, 0.000000, 4320.000000, 4400.512695, 4120.512695, 4292.820313, 4008.205078, 0.000000, 8160.000000, 8372.000000, 0.000000, 0.000000, 0.000000, 3.000000, 47.100006, 1557645965.802474, 4.000000, 4.000000, 4.000000, 4.000000, 4.000000
64.000000, 0.000000, 4297.948730, 4386.666504, 4103.589844, 4298.974121, 3988.205078, 500.000000, 8166.000000, 8377.000000, 0.000000, 0.000000, 0.000000, 3.000000, 55.000000, 1557645965.810374, 4.000000, 4.000000, 4.000000, 4.000000, 4.000000
65.000000, 0.000000, 4317.436035, 4394.358887, 4108.717773, 4314.871582, 3971.794678, 500.000000, 8165.000000, 8370.000000, 0.000000, 0.000000, 0.000000, 3.000000, 62.799988, 1557645965.818174, 4.000000, 4.000000, 4.000000, 4.000000, 4.000000
66.000000, 0.000000, 4359.487305, 4453.846191, 4141.538574, 4305.127930, 4002.051270, 16190.000000, 8164.000000, 8367.000000, 0.000000, 0.000000, 0.000000, 3.000000, 70.600006, 1557645965.825974, 4.000000, 4.000000, 4.000000, 4.000000, 4.000000
67.000000, 0.000000, 4364.102539, 4481.538574, 4161.025391, 4323.076660, 4033.333252, 500.000000, 8167.000000, 8370.000000, 0.000000, 0.000000, 0.000000, 3.000000, 78.399994, 1557645965.833774, 4.000000, 4.000000, 4.000000, 4.000000, 4.000000
68.000000, 0.000000, 4303.076660, 4386.153809, 4107.692383, 4344.615234, 3983.589600, 16110.000000, 8160.000000, 8372.000000, 0.000000, 0.000000, 0.000000, 3.000000, 86.200012, 1557645965.841574, 4.000000, 4.000000, 4.000000, 4.000000, 4.000000
69.000000, 0.000000, 4273.333008, 4328.717773, 4058.461426, 4298.974121, 3936.923096, 500.000000, 8164.000000, 8375.000000, 0.000000, 0.000000, 0.000000, 3.000000, 94.100006, 1557645965.849474, 4.000000, 4.000000, 4.000000, 4.000000, 4.000000
70.000000, 0.000000, 4316.410156, 4390.256348, 4087.179443, 4247.692383, 3972.820313, 16140.000000, 8152.000000, 8375.000000, 0.000000, 0.000000, 0.000000, 3.000000, 102.000000, 1557645965.857374, 4.000000, 4.000000, 4.000000, 4.000000, 4.000000
71.000000, 0.000000, 4335.897461, 4407.692383, 4111.794922, 4298.974121, 3996.923096, 500.000000, 8152.000000, 8370.000000, 0.000000, 0.000000, 0.000000, 3.000000, 110.000000, 1557645965.865374, 4.000000, 4.000000, 4.000000, 4.000000, 4.000000
72.000000, 0.000000, 4308.205078, 4366.153809, 4084.102539, 4354.358887, 3967.179443, 500.000000, 8142.000000, 8364.000000, 0.000000, 0.000000, 0.000000, 3.000000, 118.000000, 1557645965.873374, 4.000000, 4.000000, 4.000000, 4.000000, 4.000000
73.000000, 0.000000, 4298.974121, 4377.435547, 4068.717773, 4273.333008, 3956.410156, 16092.000000, 8128.000000, 8371.000000, 0.000000, 0.000000, 0.000000, 3.000000, 125.700012, 1557645965.881074, 4.000000, 4.000000, 4.000000, 4.000000, 4.000000
74.000000, 0.000000, 4305.127930, 4404.102539, 4092.307617, 4255.897461, 3971.281982, 500.000000, 8123.000000, 8374.000000, 0.000000, 0.000000, 0.000000, 3.000000, 133.500000, 1557645965.888874, 4.000000, 4.000000, 4.000000, 4.000000, 4.000000
75.000000, 0.000000, 4303.076660, 4413.846191, 4096.410156, 4349.743652, 3968.717773, 16173.000000, 8124.000000, 8362.000000, 0.000000, 0.000000, 0.000000, 3.000000, 141.299988, 1557645965.896674, 4.000000, 4.000000, 4.000000, 4.000000, 4.000000
76.000000, 0.000000, 4307.179199, 4417.948730, 4062.051270, 4341.538574, 3954.871582, 500.000000, 8116.000000, 8374.000000, 0.000000, 0.000000, 0.000000, 3.000000, 149.200012, 1557645965.904574, 4.000000, 4.000000, 4.000000, 4.000000, 4.000000
77.000000, 0.000000, 4315.897461, 4400.000000, 4035.897217, 4290.256348, 3958.974365, 500.000000, 8108.000000, 8369.000000, 0.000000, 0.000000, 0.000000, 3.000000, 157.200012, 1557645965.912574, 4.000000, 4.000000, 4.000000, 4.000000, 4.000000
78.000000, 0.000000, 4318.461426, 4375.897461, 4036.410156, 4280.000000, 3984.615234, 450.000000, 8113.000000, 8363.000000, 0.000000, 0.000000, 0.000000, 3.000000, 165.000000, 1557645965.920374, 4.000000, 4.000000, 4.000000, 4.000000, 4.000000
79.000000, 0.000000, 4325.641113, 4361.025391, 4038.974365, 4275.384277, 3998.461426, 16173.000000, 8121.000000, 8371.000000, 0.000000, 0.000000, 0.000000, 3.000000, 173.000000, 1557645965.928374, 4.000000, 4.000000, 4.000000, 4.000000, 4.000000
80.000000, 0.000000, 4330.769043, 4365.641113, 4030.256348, 4303.076660, 3989.230713, 450.000000, 8116.000000, 8382.000000, 0.000000, 0.000000, 0.000000, 3.000000, 181.000000, 1557645965.936374, 4.000000, 4.000000, 4.000000, 4.000000, 4.000000
81.000000, 0.000000, 4334.871582, 4401.025391, 4045.128174, 4310.256348, 3991.281982, 450.000000, 8128.000000, 8384.000000, 0.000000, 0.000000, 0.000000, 3.000000, 188.799988, 1557645965.944174, 4.000000, 4.000000, 4.000000, 4.000000, 4.000000
82.000000, 0.000000, 4334.358887, 4405.127930, 4063.589600, 4264.615234, 4005.640869, 450.000000, 8127.000000, 8385.000000, 0.000000, 0.000000, 0.000000, 3.000000, 196.500000, 1557645965.951874, 4.000000, 4.000000, 4.000000, 4.000000, 4.000000
83.000000, 0.000000, 4313.333008, 4348.205078, 4041.538330, 4282.563965, 3996.410156, 16173.000000, 8137.000000, 8393.000000, 0.000000, 0.000000, 0.000000, 3.000000, 204.299988, 1557645965.959674, 4.000000, 4.000000, 4.000000, 4.000000, 4.000000
84.000000, 0.000000, 4303.076660, 4345.641113, 4034.358887, 4331.794922, 3985.128174, 450.000000, 8136.000000, 8390.000000, 0.000000, 0.000000, 0.000000, 3.000000, 212.200012, 1557645965.967574, 4.000000, 4.000000, 4.000000, 4.000000, 4.000000
85.000000, 0.000000, 4307.179199, 4410.256348, 4053.333252, 4285.127930, 3975.897217, 450.000000, 8135.000000, 8383.000000, 0.000000, 0.000000, 0.000000, 3.000000, 220.099976, 1557645965.975474, 4.000000, 4.000000, 4.000000, 4.000000, 4.000000
86.000000, 0.000000, 4307.179199, 4423.589844, 4062.563965, 4267.179199, 3964.615234, 450.000000, 8131.000000, 8389.000000, 0.000000, 0.000000, 0.000000, 3.000000, 228.099976, 1557645965.983474, 4.000000, 4.000000, 4.000000, 4.000000, 4.000000
87.000000, 0.000000, 4321.025391, 4411.794922, 4074.871582, 4302.051270, 3985.128174, 16173.000000, 8126.000000, 8380.000000, 0.000000, 0.000000, 0.000000, 3.000000, 236.000000, 1557645965.991374, 4.000000, 4.000000, 4.000000, 4.000000, 4.000000
88.000000, 0.000000, 4306.153809, 4390.769043, 4066.666504, 4272.307617, 3981.025635, 450.000000, 8131.000000, 8366.000000, 0.000000, 0.000000, 0.000000, 3.000000, 244.000000, 1557645965.999374, 4.000000, 4.000000, 4.000000, 4.000000, 4.000000
89.000000, 0.000000, 4262.563965, 4350.769043, 4043.589600, 4264.615234, 3939.487061, 450.000000, 8139.000000, 8354.000000, 0.000000, 0.000000, 0.000000, 3.000000, 252.000000, 1557645966.007374, 4.000000, 4.000000, 4.000000, 4.000000, 4.000000
90.000000, 0.000000, 4257.436035, 4352.307617, 4050.256348, 4303.076660, 3941.538330, 450.000000, 8134.000000, 8360.000000, 0.000000, 0.000000, 0.000000, 3.000000, 259.799988, 1557645966.015174, 4.000000, 4.000000, 4.000000, 4.000000, 4.000000
91.000000, 0.000000, 4281.025391, 4400.512695, 4061.025635, 4273.846191, 3967.692139, 16173.000000, 8138.000000, 8349.000000, 0.000000, 0.000000, 0.000000, 3.000000, 267.500000, 1557645966.022874, 4.000000, 4.000000, 4.000000, 4.000000, 4.000000
92.000000, 0.000000, 4274.358887, 4392.307617, 4047.692139, 4230.256348, 3953.845947, 450.000000, 8140.000000, 8347.000000, 0.000000, 0.000000, 0.000000, 3.000000, 275.299988, 1557645966.030674, 4.000000, 4.000000, 4.000000, 4.000000, 4.000000
93.000000, 0.000000, 4243.589844, 4318.974121, 4027.179443, 4253.333008, 3920.512695, 450.000000, 8143.000000, 8358.000000, 0.000000, 0.000000, 0.000000, 3.000000, 283.099976, 1557645966.038474, 4.000000, 4.000000, 4.000000, 4.000000, 4.000000
94.000000, 0.000000, 4241.538574, 4345.127930, 4014.871582, 4268.717773, 3922.051270, 450.000000, 8143.000000, 8348.000000, 0.000000, 0.000000, 0.000000, 3.000000, 291.099976, 1557645966.046474, 4.000000, 4.000000, 4.000000, 4.000000, 4.000000
95.000000, 0.000000, 4278.974121, 4438.461426, 4031.281982, 4241.538574, 3956.923096, 16173.000000, 8144.000000, 8340.000000, 0.000000, 0.000000, 0.000000, 3.000000, 299.099976, 1557645966.054474, 4.000000, 4.000000, 4.000000, 4.000000, 4.000000
96.000000, 0.000000, 4284.102539, 4389.743652, 4041.025635, 4225.641113, 3957.435791, 450.000000, 8145.000000, 8346.000000, 0.000000, 0.000000, 0.000000, 3.000000, 307.000000, 1557645966.062374, 4.000000, 4.000000, 4.000000, 4.000000, 4.000000
97.000000, 0.000000, 4242.563965, 4300.000000, 4005.640869, 4219.487305, 3915.384521, 450.000000, 8148.000000, 8345.000000, 0.000000, 0.000000, 0.000000, 3.000000, 315.000000, 1557645966.070374, 4.000000, 4.000000, 4.000000, 4.000000, 4.000000
98.000000, 0.000000, 4246.153809, 4369.230469, 3993.333252, 4221.025391, 3921.025635, 450.000000, 8157.000000, 8339.000000, 0.000000, 0.000000, 0.000000, 3.000000, 323.000000, 1557645966.078374, 4.000000, 4.000000, 4.000000, 4.000000, 4.000000
99.000000, 0.000000, 4272.820313, 4413.333008, 4003.076904, 4227.692383, 3953.333252, 16173.000000, 8156.000000, 8344.000000, 0.000000, 0.000000, 0.000000, 3.000000, 330.799988, 1557645966.086174, 4.000000, 4.000000, 4.000000, 4.000000, 4.000000
100.000000, 0.000000, 4261.538574, 4324.615234, 3988.205078, 4265.127930, 3946.153809, 450.000000, 8153.000000, 8337.000000, 0.000000, 0.000000, 0.000000, 3.000000, 338.500000, 1557645966.093874, 4.000000, 4.000000, 4.000000, 4.000000, 4.000000
101.000000, 0.000000, 4247.692383, 4304.102539, 3973.845947, 4274.871582, 3931.794678, 450.000000, 8161.000000, 8331.000000, 0.000000, 0.000000, 0.000000, 3.000000, 346.299988, 1557645966.101674, 4.000000, 4.000000, 4.000000, 4.000000, 4.000000
102.000000, 0.000000, 4243.076660, 4353.333008, 3957.948730, 4198.461426, 3921.025635, 450.000000, 8160.000000, 8332.000000, 0.000000, 0.000000, 0.000000, 3.000000, 354.099976, 1557645966.109474, 4.000000, 4.000000, 4.000000, 4.000000, 4.000000
103.000000, 0.000000, 4266.666504, 4380.000000, 3974.871582, 4204.615234, 3941.025635, 16173.000000, 8160.000000, 8344.000000, 0.000000, 0.000000, 0.000000, 3.000000, 362.099976, 1557645966.117474, 4.000000, 4.000000, 4.000000, 4.000000, 4.000000
104.000000, 0.000000, 4294.358887, 4364.102539, 4007.692139, 4287.179199, 3964.615234, 450.000000, 8157.000000, 8349.000000, 0.000000, 0.000000, 0.000000, 3.000000, 370.099976, 1557645966.125474, 4.000000, 4.000000, 4.000000, 4.000000, 4.000000
105.000000, 0.000000, 4265.127930, 4306.666504, 3966.666504, 4274.871582, 3926.153809, 450.000000, 8153.000000, 8342.000000, 0.000000, 0.000000, 0.000000, 3.000000, 378.000000, 1557645966.133374, 4.000000, 4.000000, 4.000000, 4.000000, 4.000000
106.000000, 0.000000, 4231.794922, 4302.051270, 3911.281982, 4207.179199, 3896.923096, 450.000000, 8151.000000, 8357.000000, 0.000000, 0.000000, 0.000000, 3.000000, 385.799988, 1557645966.141174, 4.000000, 4.000000, 4.000000, 4.000000, 4.000000
107.000000, 0.000000, 4241.025391, 4354.871582, 3929.743408, 4191.794922, 3928.205078, 16173.000000, 8147.000000, 8368.000000, 0.000000, 0.000000, 0.000000, 3.000000, 393.599976, 1557645966.148974, 4.000000, 4.000000, 4.000000, 4.000000, 4.000000
108.000000, 0.000000, 4244.615234, 4348.205078, 3945.640869, 4193.846191, 3933.333252, 450.000000, 8147.000000, 8359.000000, 0.000000, 0.000000, 0.000000, 3.000000, 401.400024, 1557645966.156774, 4.000000, 4.000000, 4.000000, 4.000000, 4.000000
109.000000, 0.000000, 4234.358887, 4304.615234, 3930.256348, 4187.179199, 3913.845947, 450.000000, 8140.000000, 8366.000000, 0.000000, 0.000000, 0.000000, 3.000000, 409.099976, 1557645966.164474, 4.000000, 4.000000, 4.000000, 4.000000, 4.000000
110.000000, 0.000000, 4251.281738, 4329.230469, 3951.281982, 4224.102539, 3952.307617, 450.000000, 8142.000000, 8369.000000, 0.000000, 0.000000, 0.000000, 3.000000, 417.000000, 1557645966.172374, 4.000000, 4.000000, 4.000000, 4.000000, 4.000000
111.000000, 0.000000, 4270.256348, 4374.871582, 3968.205078, 4278.974121, 3996.410156, 16173.000000, 8141.000000, 8378.000000, 0.000000, 0.000000, 0.000000, 3.000000, 425.000000, 1557645966.180374, 4.000000, 4.000000, 4.000000, 4.000000, 4.000000
112.000000, 0.000000, 4252.307617, 4357.948730, 3950.256348, 4264.102539, 3985.128174, 450.000000, 8131.000000, 8383.000000, 0.000000, 0.000000, 0.000000, 3.000000, 433.000000, 1557645966.188374, 4.000000, 4.000000, 4.000000, 4.000000, 4.000000
113.000000, 0.000000, 4216.922852, 4309.230469, 3922.563965, 4180.000000, 3944.102539, 450.000000, 8125.000000, 8395.000000, 0.000000, 0.000000, 0.000000, 3.000000, 441.000000, 1557645966.196374, 4.000000, 4.000000, 4.000000, 4.000000, 4.000000
114.000000, 0.000000, 4217.948730, 4312.820313, 3910.256348, 4169.743652, 3927.692139, 450.000000, 8123.000000, 8395.000000, 0.000000, 0.000000, 0.000000, 3.000000, 448.900024, 1557645966.204274, 4.000000, 4.000000, 4.000000, 4.000000, 4.000000
115.000000, 0.000000, 4257.436035, 4361.025391, 3928.717773, 4198.974121, 3966.666504, 16173.000000, 8128.000000, 8410.000000, 0.000000, 0.000000, 0.000000, 3.000000, 456.900024, 1557645966.212274, 4.000000, 4.000000, 4.000000, 4.000000, 4.000000
116.000000, 0.000000, 4249.230469, 4355.384277, 3924.102539, 4171.281738, 3980.000000, 450.000000, 8130.000000, 8424.000000, 0.000000, 0.000000, 0.000000, 3.000000, 464.700012, 1557645966.220074, 4.000000, 4.000000, 4.000000, 4.000000, 4.000000
117.000000, 0.000000, 4210.769043, 4312.307617, 3892.820313, 4186.666504, 3940.000000, 450.000000, 8135.000000, 8438.000000, 0.000000, 0.000000, 0.000000, 3.000000, 472.500000, 1557645966.227874, 4.000000, 4.000000, 4.000000, 4.000000, 4.000000
118.000000, 0.000000, 4215.384277, 4312.307617, 3887.179443, 4217.948730, 3936.410156, 450.000000, 8136.000000, 8440.000000, 0.000000, 0.000000, 0.000000, 3.000000, 480.200012, 1557645966.235574, 4.000000, 4.000000, 4.000000, 4.000000, 4.000000
119.000000, 0.000000, 4228.717773, 4317.948730, 3892.307617, 4188.205078, 3963.076904, 16173.000000, 8139.000000, 8447.000000, 0.000000, 0.000000, 0.000000, 3.000000, 488.099976, 1557645966.243474, 4.000000, 4.000000, 4.000000, 4.000000, 4.000000
120.000000, 0.000000, 4232.820313, 4302.563965, 3877.435791, 4180.000000, 3954.358887, 450.000000, 8131.000000, 8457.000000, 0.000000, 0.000000, 0.000000, 3.000000, 496.099976, 1557645966.251474, 4.000000, 4.000000, 4.000000, 4.000000, 4.000000
121.000000, 0.000000, 4288.717773, 4358.461426, 3904.102539, 4197.948730, 3975.384521, 450.000000, 8133.000000, 8445.000000, 0.000000, 0.000000, 0.000000, 3.000000, 504.099976, 1557645966.259474, 4.000000, 4.000000, 4.000000, 4.000000, 4.000000
122.000000, 0.000000, 4358.461426, 4421.025391, 3972.820313, 4162.051270, 4044.615234, 450.000000, 8114.000000, 8433.000000, 0.000000, 0.000000, 0.000000, 3.000000, 512.099976, 1557645966.267474, 4.000000, 4.000000, 4.000000, 4.000000, 4.000000
123.000000, 0.000000, 4354.358887, 4339.487305, 3970.769043, 4167.692383, 4050.769043, 16173.000000, 8115.000000, 8430.000000, 0.000000, 0.000000, 0.000000, 3.000000, 519.799988, 1557645966.275174, 4.000000, 4.000000, 4.000000, 4.000000, 4.000000
124.000000, 0.000000, 4365.127930, 4289.743652, 3951.281982, 4211.794922, 4042.051270, 450.000000, 8110.000000, 8425.000000, 0.000000, 0.000000, 0.000000, 3.000000, 527.599976, 1557645966.282974, 4.000000, 4.000000, 4.000000, 4.000000, 4.000000
125.000000, 0.000000, 4422.563965, 4371.281738, 3973.845947, 4181.538574, 4076.923096, 450.000000, 8104.000000, 8424.000000, 0.000000, 0.000000, 0.000000, 3.000000, 535.400024, 1557645966.290774, 4.000000, 4.000000, 4.000000, 4.000000, 4.000000
126.000000, 0.000000, 4415.384277, 4356.922852, 3962.051270, 4175.897461, 4070.769043, 450.000000, 8086.000000, 8427.000000, 0.000000, 0.000000, 0.000000, 3.000000, 543.200012, 1557645966.298574, 4.000000, 4.000000, 4.000000, 4.000000, 4.000000
127.000000, 0.000000, 4377.435547, 4282.563965, 3929.230713, 4191.281738, 4038.461426, 16173.000000, 8089.000000, 8415.000000, 0.000000, 0.000000, 0.000000, 3.000000, 551.099976, 1557645966.306474, 4.000000, 4.000000, 4.000000, 4.000000, 4.000000
128.000000, 0.000000, 4384.102539, 4329.230469, 3945.640869, 4128.717773, 4045.128174, 500.000000, 8098.000000, 8416.000000, 0.000000, 0.000000, 0.000000, 3.000000, 559.099976, 1557645966.314474, 4.000000, 4.000000, 4.000000, 4.000000, 4.000000
0.000000, 0.000000, 4378.461426, 4356.410156, 3955.384521, 4097.948730, 4023.076904, 500.000000, 8097.000000, 8414.000000, 0.000000, 0.000000, 0.000000, 3.000000, 567.099976, 1557645966.322474, 4.000000, 4.000000, 4.000000, 4.000000, 4.000000
1.000000, 0.000000, 4343.589844, 4308.205078, 3939.487061, 4163.076660, 3989.230713, 500.000000, 8101.000000, 8411.000000, 0.000000, 0.000000, 0.000000, 3.000000, 575.099976, 1557645966.330474, 4.000000, 4.000000, 4.000000, 4.000000, 4.000000
2.000000, 0.000000, 4317.948730, 4310.256348, 3946.153809, 4163.076660, 3998.974365, 16188.000000, 8114.000000, 8396.000000, 0.000000, 0.000000, 0.000000, 3.000000, 582.900024, 1557645966.338274, 4.000000, 4.000000, 4.000000, 4.000000, 4.000000
3.000000, 0.000000, 4291.794922, 4317.436035, 3966.153809, 4126.666504, 3990.769043, 500.000000, 8125.000000, 8388.000000, 0.000000, 0.000000, 0.000000, 3.000000, 590.599976, 1557645966.345974, 4.000000, 4.000000, 4.000000, 4.000000, 4.000000
4.000000, 0.000000, 4294.358887, 4332.820313, 4014.871582, 4182.051270, 3987.692139, 16152.000000, 8130.000000, 8395.000000, 0.000000, 0.000000, 0.000000, 3.000000, 598.400024, 1557645966.353774, 4.000000, 4.000000, 4.000000, 4.000000, 4.000000
5.000000, 0.000000, 4294.358887, 4365.641113, 4051.281982, 4181.538574, 3999.487061, 500.000000, 8143.000000, 8395.000000, 0.000000, 0.000000, 0.000000, 3.000000, 606.200012, 1557645966.361574, 4.000000, 4.000000, 4.000000, 4.000000, 4.000000
6.000000, 0.000000, 4236.922852, 4316.922852, 4018.974365, 4136.922852, 3963.589600, 16172.000000, 8149.000000, 8379.000000, 0.000000, 0.000000, 0.000000, 3.000000, 614.000000, 1557645966.369374, 4.000000, 4.000000, 4.000000, 4.000000, 4.000000
7.000000, 0.000000, 4205.127930, 4265.127930, 3997.435791, 4175.897461, 3929.230713, 500.000000, 8151.000000, 8376.000000, 0.000000, 0.000000, 0.000000, 3.000000, 621.900024, 1557645966.377274, 4.000000, 4.000000, 4.000000, 4.000000, 4.000000
8.000000, 0.000000, 4244.102539, 4315.384277, 4042.563965, 4200.512695, 3961.025635, 500.000000, 8150.000000, 8372.000000, 0.000000, 0.000000, 0.000000, 3.000000, 629.900024, 1557645966.385274, 4.000000, 4.000000, 4.000000, 4.000000, 4.000000
9.000000, 0.000000, 4252.307617, 4346.666504, 4065.640869, 4135.384277, 3985.128174, 16120.000000, 8148.000000, 8360.000000, 0.000000, 0.000000, 0.000000, 3.000000, 637.900024, 1557645966.393274, 4.000000, 4.000000, 4.000000, 4.000000, 4.000000
10.000000, 0.000000, 4209.743652, 4302.563965, 4042.051270, 4103.076660, 3965.640869, 500.000000, 8140.000000, 8370.000000, 0.000000, 0.000000, 0.000000, 3.000000, 645.900024, 1557645966.401274, 4.000000, 4.000000, 4.000000, 4.000000, 4.000000
11.000000, 0.000000, 4211.281738, 4312.307617, 4066.666504, 4131.794922, 3979.487061, 16180.000000, 8146.000000, 8369.000000, 0.000000, 0.000000, 0.000000, 3.000000, 653.700012, 1557645966.409074, 4.000000, 4.000000, 4.000000, 4.000000, 4.000000
12.000000, 0.000000, 4222.051270, 4336.410156, 4090.256348, 4126.153809, 3991.794678, 500.000000, 8132.000000, 8376.000000, 0.000000, 0.000000, 0.000000, 3.000000, 661.400024, 1557645966.416774, 4.000000, 4.000000, 4.000000, 4.000000, 4.000000
13.000000, 0.000000, 4187.179199, 4310.256348, 4054.358887, 4129.230469, 3963.589600, 500.000000, 8122.000000, 8386.000000, 0.000000, 0.000000, 0.000000, 3.000000, 669.200000, 1557645966.424574, 4.000000, 4.000000, 4.000000, 4.000000, 4.000000
14.000000, 0.000000, 4178.461426, 4334.358887, 4038.974365, 4174.871582, 3961.025635, 450.000000, 8122.000000, 8391.000000, 0.000000, 0.000000, 0.000000, 3.000000, 677.100000, 1557645966.432474, 4.000000, 4.000000, 4.000000, 4.000000, 4.000000
15.000000, 0.000000, 4193.846191, 4371.281738, 4056.923096, 4175.384277, 3980.000000, 16180.000000, 8114.000000, 8383.000000, 0.000000, 0.000000, 0.000000, 3.000000, 685.100000, 1557645966.440474, 4.000000, 4.000000, 4.000000, 4.000000, 4.000000
16.000000, 0.000000, 4155.384277, 4309.743652, 4029.743408, 4107.179199, 3952.820313, 0.000000, 8106.000000, 8401.000000, 0.000000, 0.000000, 0.000000, 3.000000, 693.100000, 1557645966.448474, 4.000000, 4.000000, 4.000000, 4.000000, 4.000000
17.000000, 0.000000, 4108.717773, 4253.846191, 3985.640869, 4083.589600, 3912.307617, 0.000000, 8106.000000, 8410.000000, 0.000000, 0.000000, 0.000000, 3.000000, 701.000000, 1557645966.456374, 4.000000, 4.000000, 4.000000, 4.000000, 4.000000
18.000000, 0.000000, 4118.461426, 4293.846191, 3998.974365, 4128.717773, 3925.128174, 0.000000, 8113.000000, 8419.000000, 0.000000, 0.000000, 0.000000, 3.000000, 709.000000, 1557645966.464374, 4.000000, 4.000000, 4.000000, 4.000000, 4.000000
19.000000, 0.000000, 4116.410156, 4312.820313, 4010.769043, 4110.256348, 3930.769043, 0.000000, 8113.000000, 8411.000000, 0.000000, 0.000000, 0.000000, 3.000000, 716.799999, 1557645966.472174, 4.000000, 4.000000, 4.000000, 4.000000, 4.000000
20.000000, 0.000000, 4073.333252, 4255.897461, 3963.076904, 4061.025635, 3883.076904, 0.000000, 8115.000000, 8408.000000, 0.000000, 0.000000, 0.000000, 3.000000, 724.599998, 1557645966.479974, 4.000000, 4.000000, 4.000000, 4.000000, 4.000000
21.000000, 0.000000, 4064.615234, 4226.666504, 3944.102539, 4088.717773, 3864.102539, 0.000000, 8128.000000, 8411.000000, 0.000000, 0.000000, 0.000000, 3.000000, 732.300003, 1557645966.487674, 4.000000, 4.000000, 4.000000, 4.000000, 4.000000
22.000000, 0.000000, 4101.538574, 4283.076660, 3997.948730, 4126.153809, 3913.333252, 0.000000, 8125.000000, 8400.000000, 0.000000, 0.000000, 0.000000, 3.000000, 740.199997, 1557645966.495574, 4.000000, 4.000000, 4.000000, 4.000000, 4.000000
23.000000, 0.000000, 4114.358887, 4337.948730, 4034.871582, 4099.487305, 3943.076904, 0.000000, 8128.000000, 8393.000000, 0.000000, 0.000000, 0.000000, 3.000000, 748.199997, 1557645966.503574, 4.000000, 4.000000, 4.000000, 4.000000, 4.000000
24.000000, 0.000000, 4096.410156, 4316.922852, 4031.281982, 4085.640869, 3921.025635, 0.000000, 8131.000000, 8388.000000, 0.000000, 0.000000, 0.000000, 3.000000, 756.199997, 1557645966.511574, 4.000000, 4.000000, 4.000000, 4.000000, 4.000000
25.000000, 0.000000, 4073.845947, 4242.051270, 4014.358887, 4121.538574, 3896.410156, 0.000000, 8140.000000, 8377.000000, 0.000000, 0.000000, 0.000000, 3.000000, 764.099998, 1557645966.519474, 4.000000, 4.000000, 4.000000, 4.000000, 4.000000
26.000000, 0.000000, 4068.205078, 4225.641113, 4007.692139, 4137.436035, 3890.769043, 0.000000, 8147.000000, 8377.000000, 0.000000, 0.000000, 0.000000, 3.000000, 772.000000, 1557645966.527374, 4.000000, 4.000000, 4.000000, 4.000000, 4.000000
27.000000, 0.000000, 4094.871582, 4301.538574, 4036.410156, 4085.640869, 3908.717773, 0.000000, 8150.000000, 8373.000000, 0.000000, 0.000000, 0.000000, 3.000000, 779.800003, 1557645966.535174, 4.000000, 4.000000, 4.000000, 4.000000, 4.000000
28.000000, 0.000000, 4102.563965, 4313.846191, 4055.897217, 4055.384521, 3912.307617, 0.000000, 8161.000000, 8365.000000, 0.000000, 0.000000, 0.000000, 3.000000, 787.599998, 1557645966.542974, 4.000000, 4.000000, 4.000000, 4.000000, 4.000000
29.000000, 0.000000, 4074.871582, 4251.794922, 4047.179443, 4113.333008, 3893.845947, 0.000000, 8170.000000, 8369.000000, 0.000000, 0.000000, 0.000000, 3.000000, 795.399994, 1557645966.550774, 4.000000, 4.000000, 4.000000, 4.000000, 4.000000
30.000000, 0.000000, 4064.102539, 4250.256348, 4061.025635, 4123.589844, 3897.435791, 0.000000, 8169.000000, 8383.000000, 0.000000, 0.000000, 0.000000, 3.000000, 803.100006, 1557645966.558474, 4.000000, 4.000000, 4.000000, 4.000000, 4.000000
31.000000, 0.000000, 4072.307617, 4286.153809, 4097.436035, 4081.025635, 3926.153809, 0.000000, 8167.000000, 8391.000000, 0.000000, 0.000000, 0.000000, 3.000000, 811.100006, 1557645966.566474, 4.000000, 4.000000, 4.000000, 4.000000, 4.000000
32.000000, 0.000000, 4096.922852, 4315.897461, 4121.025391, 4126.153809, 3960.000000, 0.000000, 8167.000000, 8385.000000, 0.000000, 0.000000, 0.000000, 3.000000, 819.100006, 1557645966.574474, 4.000000, 4.000000, 4.000000, 4.000000, 4.000000
33.000000, 0.000000, 4107.692383, 4327.692383, 4110.256348, 4134.358887, 3962.563965, 0.000000, 8158.000000, 8397.000000, 0.000000, 0.000000, 0.000000, 3.000000, 827.100006, 1557645966.582474, 4.000000, 4.000000, 4.000000, 4.000000, 4.000000
34.000000, 0.000000, 4063.589600, 4284.102539, 4082.051270, 4043.589600, 3929.230713, 0.000000, 8153.000000, 8410.000000, 0.000000, 0.000000, 0.000000, 3.000000, 835.100006, 1557645966.590474, 4.000000, 4.000000, 4.000000, 4.000000, 4.000000
35.000000, 0.000000, 4031.794678, 4241.538574, 4068.205078, 4062.563965, 3916.410156, 0.000000, 8147.000000, 8402.000000, 0.000000, 0.000000, 0.000000, 3.000000, 843.000000, 1557645966.598374, 4.000000, 4.000000, 4.000000, 4.000000, 4.000000
36.000000, 0.000000, 4068.205078, 4268.205078, 4073.845947, 4128.717773, 3937.948730, 0.000000, 8143.000000, 8391.000000, 0.000000, 0.000000, 0.000000, 3.000000, 850.800003, 1557645966.606174, 4.000000, 4.000000, 4.000000, 4.000000, 4.000000
