title:Ganesh happy2, recorded:12.05.19 13.59.22, timestamp started:2019-05-12T13:59:22.960961+05:30, sampling:128, subject:, labels:COUNTER INTERPOLATED AF3 T7 Pz T8 AF4 RAW_CQ GYROX GYROY MARKER MARKER_HARDWARE SYNC TIME_STAMP_s TIME_STAMP_ms TimeStamp CQ_AF3 CQ_T7 CQ_Pz CQ_T8 CQ_AF4, chan:20, samples:7784, units:emotiv
24.000000, 0.000000, 4458.974121, 4285.641113, 3904.102539, 4145.127930, 4205.127930, 0.000000, 8135.000000, 8345.000000, 1.000000, 1.000000, 0.000000, 0.000000, 0.000000, 1557649762.960962, 4.000000, 4.000000, 4.000000, 0.000000, 4.000000
25.000000, 0.000000, 4470.769043, 4243.589844, 3925.640869, 4153.333008, 4225.641113, 0.000000, 8136.000000, 8334.000000, 0.000000, 0.000000, 0.000000, 0.000000, 7.900009, 1557649762.968862, 4.000000, 4.000000, 4.000000, 0.000000, 4.000000
26.000000, 0.000000, 4463.076660, 4187.692383, 3917.948730, 4159.487305, 4230.256348, 0.000000, 8135.000000, 8332.000000, 0.000000, 0.000000, 0.000000, 0.000000, 15.900009, 1557649762.976862, 4.000000, 4.000000, 4.000000, 0.000000, 4.000000
27.000000, 0.000000, 4465.127930, 4210.769043, 3916.923096, 4160.512695, 4227.692383, 0.000000, 8129.000000, 8341.000000, 0.000000, 0.000000, 0.000000, 0.000000, 23.900009, 1557649762.984862, 4.000000, 4.000000, 4.000000, 0.000000, 4.000000
28.000000, 0.000000, 4481.025391, 4202.563965, 3931.281982, 4163.076660, 4233.333008, 0.000000, 8123.000000, 8336.000000, 0.000000, 0.000000, 0.000000, 0.000000, 31.699997, 1557649762.992662, 4.000000, 4.000000, 4.000000, 0.000000, 4.000000
29.000000, 0.000000, 4476.410156, 4168.717773, 3931.281982, 4163.589844, 4234.871582, 0.000000, 8125.000000, 8338.000000, 0.000000, 0.000000, 0.000000, 0.000000, 39.500000, 1557649763.000462, 4.000000, 4.000000, 4.000000, 0.000000, 4.000000
30.000000, 0.000000, 4456.410156, 4166.153809, 3918.461426, 4163.589844, 4230.256348, 0.000000, 8124.000000, 8340.000000, 0.000000, 0.000000, 0.000000, 0.000000, 47.300003, 1557649763.008262, 4.000000, 4.000000, 4.000000, 0.000000, 4.000000
31.000000, 0.000000, 4458.974121, 4131.281738, 3921.025635, 4167.692383, 4231.794922, 0.000000, 8128.000000, 8337.000000, 0.000000, 0.000000, 0.000000, 0.000000, 55.099991, 1557649763.016062, 4.000000, 4.000000, 4.000000, 0.000000, 4.000000
32.000000, 0.000000, 4472.820313, 4076.410156, 3934.871582, 4166.153809, 4234.358887, 0.000000, 8127.000000, 8330.000000, 0.000000, 0.000000, 0.000000, 0.000000, 63.000015, 1557649763.023962, 4.000000, 4.000000, 4.000000, 0.000000, 4.000000
33.000000, 0.000000, 4472.307617, 4076.923096, 3943.076904, 4168.717773, 4232.820313, 0.000000, 8124.000000, 8340.000000, 0.000000, 0.000000, 0.000000, 0.000000, 71.000015, 1557649763.031962, 4.000000, 4.000000, 4.000000, 0.000000, 4.000000
34.000000, 0.000000, 4472.820313, 4075.384521, 3939.487061, 4181.025391, 4232.307617, 0.000000, 8128.000000, 8348.000000, 0.000000, 0.000000, 0.000000, 0.000000, 79.000015, 1557649763.039962, 4.000000, 4.000000, 4.000000, 0.000000, 4.000000
35.000000, 0.000000, 4477.948730, 4048.205078, 3935.384521, 4178.974121, 4234.358887, 0.000000, 8134.000000, 8338.000000, 0.000000, 0.000000, 0.000000, 0.000000, 87.000015, 1557649763.047962, 4.000000, 4.000000, 4.000000, 0.000000, 4.000000
36.000000, 0.000000, 4462.563965, 4016.923096, 3932.307617, 4163.589844, 4229.230469, 0.000000, 8128.000000, 8345.000000, 0.000000, 0.000000, 0.000000, 0.000000, 94.800003, 1557649763.055762, 4.000000, 4.000000, 4.000000, 0.000000, 4.000000
37.000000, 0.000000, 4452.820313, 3967.692139, 3919.487061, 4154.871582, 4223.589844, 0.000000, 8126.000000, 8345.000000, 0.000000, 0.000000, 0.000000, 0.000000, 102.599991, 1557649763.063562, 4.000000, 4.000000, 4.000000, 0.000000, 4.000000
38.000000, 0.000000, 4470.769043, 3934.358887, 3913.845947, 4155.384277, 4226.153809, 0.000000, 8131.000000, 8340.000000, 0.000000, 0.000000, 0.000000, 0.000000, 110.400009, 1557649763.071362, 4.000000, 4.000000, 4.000000, 0.000000, 4.000000
39.000000, 0.000000, 4473.846191, 3931.794678, 3913.845947, 4157.436035, 4221.025391, 0.000000, 8134.000000, 8331.000000, 0.000000, 0.000000, 0.000000, 0.000000, 118.099991, 1557649763.079062, 4.000000, 4.000000, 4.000000, 0.000000, 4.000000
40.000000, 0.000000, 4457.435547, 3915.384521, 3909.743408, 4165.641113, 4200.512695, 0.000000, 8130.000000, 8342.000000, 0.000000, 0.000000, 0.000000, 0.000000, 126.000015, 1557649763.086962, 4.000000, 4.000000, 4.000000, 0.000000, 4.000000
41.000000, 0.000000, 4460.512695, 3880.000000, 3918.974365, 4174.358887, 4185.641113, 0.000000, 8131.000000, 8335.000000, 0.000000, 0.000000, 0.000000, 0.000000, 134.000015, 1557649763.094962, 4.000000, 4.000000, 4.000000, 0.000000, 4.000000
42.000000, 0.000000, 4471.281738, 3881.538330, 3931.794678, 4165.127930, 4186.666504, 0.000000, 8134.000000, 8337.000000, 0.000000, 0.000000, 0.000000, 0.000000, 142.000015, 1557649763.102962, 4.000000, 4.000000, 4.000000, 0.000000, 4.000000
43.000000, 0.000000, 4458.974121, 3886.153809, 3921.025635, 4154.871582, 4176.922852, 0.000000, 8128.000000, 8335.000000, 0.000000, 0.000000, 0.000000, 0.000000, 150.000015, 1557649763.110962, 4.000000, 4.000000, 4.000000, 0.000000, 4.000000
44.000000, 0.000000, 4437.435547, 3832.820313, 3895.384521, 4153.333008, 4150.256348, 0.000000, 8127.000000, 8333.000000, 0.000000, 0.000000, 0.000000, 0.000000, 158.000015, 1557649763.118962, 4.000000, 4.000000, 4.000000, 0.000000, 4.000000
45.000000, 0.000000, 4423.076660, 3801.025635, 3881.538330, 4145.127930, 4134.871582, 0.000000, 8127.000000, 8334.000000, 0.000000, 0.000000, 0.000000, 0.000000, 165.800003, 1557649763.126762, 4.000000, 4.000000, 4.000000, 0.000000, 4.000000
46.000000, 0.000000, 4416.410156, 3828.717773, 3876.410156, 4140.512695, 4136.410156, 0.000000, 8128.000000, 8344.000000, 0.000000, 0.000000, 0.000000, 0.000000, 173.500015, 1557649763.134462, 4.000000, 4.000000, 4.000000, 0.000000, 4.000000
47.000000, 0.000000, 4414.871582, 3817.435791, 3876.923096, 4142.051270, 4137.948730, 0.000000, 8128.000000, 8344.000000, 0.000000, 0.000000, 0.000000, 0.000000, 181.300003, 1557649763.142262, 4.000000, 4.000000, 4.000000, 0.000000, 4.000000
48.000000, 0.000000, 4409.230469, 3789.230713, 3890.256348, 4142.563965, 4134.871582, 0.000000, 8125.000000, 8339.000000, 0.000000, 0.000000, 0.000000, 0.000000, 189.099991, 1557649763.150062, 4.000000, 4.000000, 4.000000, 0.000000, 4.000000
49.000000, 0.000000, 4416.922852, 3821.538330, 3905.640869, 4146.666504, 4135.897461, 0.000000, 8116.000000, 8336.000000, 0.000000, 0.000000, 0.000000, 0.000000, 197.000015, 1557649763.157962, 4.000000, 4.000000, 4.000000, 0.000000, 4.000000
50.000000, 0.000000, 4428.205078, 3814.358887, 3911.794678, 4152.307617, 4141.025391, 0.000000, 8115.000000, 8349.000000, 0.000000, 0.000000, 0.000000, 0.000000, 205.000015, 1557649763.165962, 4.000000, 4.000000, 4.000000, 0.000000, 4.000000
51.000000, 0.000000, 4420.000000, 3756.410156, 3902.051270, 4148.717773, 4142.563965, 0.000000, 8115.000000, 8337.000000, 0.000000, 0.000000, 0.000000, 0.000000, 213.000015, 1557649763.173962, 4.000000, 4.000000, 4.000000, 0.000000, 4.000000
52.000000, 0.000000, 4404.615234, 3760.000000, 3877.435791, 4137.948730, 4126.666504, 0.000000, 8113.000000, 8336.000000, 0.000000, 0.000000, 0.000000, 0.000000, 221.000015, 1557649763.181962, 4.000000, 4.000000, 4.000000, 0.000000, 4.000000
53.000000, 0.000000, 4393.846191, 3777.435791, 3866.666504, 4135.384277, 4106.153809, 0.000000, 8111.000000, 8347.000000, 0.000000, 0.000000, 0.000000, 0.000000, 228.699997, 1557649763.189662, 4.000000, 4.000000, 4.000000, 0.000000, 4.000000
54.000000, 0.000000, 4381.538574, 3738.461426, 3876.923096, 4139.487305, 4102.563965, 0.000000, 8106.000000, 8349.000000, 0.000000, 0.000000, 0.000000, 0.000000, 236.500015, 1557649763.197462, 4.000000, 4.000000, 4.000000, 0.000000, 4.000000
55.000000, 0.000000, 4381.025391, 3740.512695, 3879.487061, 4138.974121, 4101.538574, 0.000000, 8106.000000, 8341.000000, 0.000000, 0.000000, 0.000000, 0.000000, 244.300003, 1557649763.205262, 4.000000, 4.000000, 4.000000, 0.000000, 4.000000
56.000000, 0.000000, 4397.948730, 3773.845947, 3880.000000, 4142.051270, 4096.410156, 0.000000, 8107.000000, 8345.000000, 0.000000, 0.000000, 0.000000, 0.000000, 252.099991, 1557649763.213062, 4.000000, 4.000000, 4.000000, 0.000000, 4.000000
57.000000, 0.000000, 4400.512695, 3749.743408, 3888.717773, 4147.692383, 4102.563965, 0.000000, 8113.000000, 8342.000000, 0.000000, 0.000000, 0.000000, 0.000000, 260.000015, 1557649763.220962, 4.000000, 4.000000, 4.000000, 0.000000, 4.000000
58.000000, 0.000000, 4397.435547, 3745.128174, 3895.384521, 4151.281738, 4115.897461, 0.000000, 8111.000000, 8339.000000, 0.000000, 0.000000, 0.000000, 0.000000, 268.000015, 1557649763.228962, 4.000000, 4.000000, 4.000000, 0.000000, 4.000000
59.000000, 0.000000, 4410.256348, 3778.461426, 3904.615234, 4154.358887, 4125.641113, 0.000000, 8111.000000, 8348.000000, 0.000000, 0.000000, 0.000000, 0.000000, 276.000015, 1557649763.236962, 4.000000, 4.000000, 4.000000, 0.000000, 4.000000
60.000000, 0.000000, 4418.974121, 3761.538330, 3906.153809, 4149.743652, 4130.256348, 0.000000, 8114.000000, 8351.000000, 0.000000, 0.000000, 0.000000, 0.000000, 283.900009, 1557649763.244862, 4.000000, 4.000000, 4.000000, 0.000000, 4.000000
61.000000, 0.000000, 4417.948730, 3728.205078, 3897.948730, 4148.717773, 4130.256348, 0.000000, 8118.000000, 8341.000000, 0.000000, 0.000000, 0.000000, 0.000000, 291.900009, 1557649763.252862, 4.000000, 4.000000, 4.000000, 0.000000, 4.000000
62.000000, 0.000000, 4417.948730, 3757.435791, 3902.563965, 4155.897461, 4125.641113, 0.000000, 8123.000000, 8348.000000, 0.000000, 0.000000, 0.000000, 0.000000, 299.700027, 1557649763.260662, 4.000000, 4.000000, 4.000000, 0.000000, 4.000000
63.000000, 0.000000, 4404.102539, 3759.487061, 3899.487061, 4145.127930, 4109.743652, 0.000000, 8125.000000, 8356.000000, 0.000000, 0.000000, 0.000000, 0.000000, 307.500015, 1557649763.268462, 4.000000, 4.000000, 4.000000, 0.000000, 4.000000
64.000000, 0.000000, 4385.641113, 3719.487061, 3878.461426, 4133.333008, 4096.922852, 500.000000, 8129.000000, 8354.000000, 0.000000, 0.000000, 0.000000, 0.000000, 315.300003, 1557649763.276262, 4.000000, 4.000000, 4.000000, 0.000000, 4.000000
65.000000, 0.000000, 4389.230469, 3736.923096, 3879.487061, 4142.563965, 4101.538574, 500.000000, 8130.000000, 8334.000000, 0.000000, 0.000000, 0.000000, 0.000000, 323.099991, 1557649763.284062, 4.000000, 4.000000, 4.000000, 0.000000, 4.000000
66.000000, 0.000000, 4396.410156, 3746.153809, 3895.897461, 4147.692383, 4105.127930, 16134.000000, 8131.000000, 8345.000000, 0.000000, 0.000000, 0.000000, 0.000000, 331.099991, 1557649763.292062, 4.000000, 4.000000, 4.000000, 0.000000, 4.000000
67.000000, 0.000000, 4395.384277, 3712.820313, 3894.871582, 4137.436035, 4100.000000, 500.000000, 8136.000000, 8352.000000, 0.000000, 0.000000, 0.000000, 0.000000, 339.000015, 1557649763.299962, 4.000000, 4.000000, 4.000000, 0.000000, 4.000000
68.000000, 0.000000, 4404.615234, 3741.025635, 3895.897461, 4140.512695, 4105.127930, 16179.000000, 8137.000000, 8341.000000, 0.000000, 0.000000, 0.000000, 0.000000, 346.899979, 1557649763.307862, 4.000000, 4.000000, 4.000000, 0.000000, 4.000000
69.000000, 0.000000, 4407.692383, 3782.563965, 3908.205078, 4147.692383, 4110.769043, 500.000000, 8130.000000, 8348.000000, 0.000000, 0.000000, 0.000000, 0.000000, 354.899979, 1557649763.315862, 4.000000, 4.000000, 4.000000, 0.000000, 4.000000
70.000000, 0.000000, 4385.641113, 3741.025635, 3902.563965, 4133.333008, 4097.948730, 16149.000000, 8131.000000, 8345.000000, 0.000000, 0.000000, 0.000000, 0.000000, 362.700027, 1557649763.323662, 4.000000, 4.000000, 4.000000, 0.000000, 4.000000
71.000000, 0.000000, 4377.948730, 3728.205078, 3882.563965, 4126.153809, 4083.076904, 500.000000, 8133.000000, 8353.000000, 0.000000, 0.000000, 0.000000, 0.000000, 370.500015, 1557649763.331462, 4.000000, 4.000000, 4.000000, 0.000000, 4.000000
72.000000, 0.000000, 4397.948730, 3785.128174, 3879.487061, 4131.281738, 4091.794678, 500.000000, 8136.000000, 8351.000000, 0.000000, 0.000000, 0.000000, 0.000000, 378.300003, 1557649763.339262, 4.000000, 4.000000, 4.000000, 0.000000, 4.000000
73.000000, 0.000000, 4414.871582, 3799.487061, 3892.307617, 4134.358887, 4116.410156, 10.000000, 8129.000000, 8358.000000, 0.000000, 0.000000, 0.000000, 0.000000, 386.000015, 1557649763.346962, 4.000000, 4.000000, 4.000000, 0.000000, 4.000000
74.000000, 0.000000, 4420.000000, 3794.358887, 3898.461426, 4141.025391, 4128.205078, 500.000000, 8130.000000, 8352.000000, 0.000000, 0.000000, 0.000000, 0.000000, 394.000015, 1557649763.354962, 4.000000, 4.000000, 4.000000, 0.000000, 4.000000
75.000000, 0.000000, 4414.871582, 3813.333252, 3892.820313, 4141.025391, 4121.538574, 16184.000000, 8127.000000, 8353.000000, 0.000000, 0.000000, 0.000000, 0.000000, 402.000015, 1557649763.362962, 4.000000, 4.000000, 4.000000, 0.000000, 4.000000
76.000000, 0.000000, 4408.717773, 3800.000000, 3892.307617, 4134.358887, 4118.461426, 500.000000, 8127.000000, 8364.000000, 0.000000, 0.000000, 0.000000, 0.000000, 410.000015, 1557649763.370962, 4.000000, 4.000000, 4.000000, 0.000000, 4.000000
77.000000, 0.000000, 4417.948730, 3790.256348, 3910.769043, 4134.358887, 4129.230469, 500.000000, 8121.000000, 8367.000000, 0.000000, 0.000000, 0.000000, 0.000000, 417.899979, 1557649763.378862, 4.000000, 4.000000, 4.000000, 0.000000, 4.000000
78.000000, 0.000000, 4423.589844, 3827.179443, 3933.333252, 4136.922852, 4138.974121, 450.000000, 8120.000000, 8357.000000, 0.000000, 0.000000, 0.000000, 0.000000, 425.899979, 1557649763.386862, 4.000000, 4.000000, 4.000000, 0.000000, 4.000000
79.000000, 0.000000, 4410.256348, 3826.666504, 3936.410156, 4134.871582, 4132.820313, 16184.000000, 8120.000000, 8364.000000, 0.000000, 0.000000, 0.000000, 0.000000, 433.700027, 1557649763.394662, 4.000000, 4.000000, 4.000000, 0.000000, 4.000000
80.000000, 0.000000, 4405.641113, 3809.230713, 3928.717773, 4131.794922, 4115.384277, 450.000000, 8116.000000, 8374.000000, 0.000000, 0.000000, 0.000000, 0.000000, 441.399979, 1557649763.402362, 4.000000, 4.000000, 4.000000, 0.000000, 4.000000
81.000000, 0.000000, 4410.256348, 3827.179443, 3921.538330, 4132.307617, 4103.076660, 450.000000, 8119.000000, 8370.000000, 0.000000, 0.000000, 0.000000, 0.000000, 449.200027, 1557649763.410162, 4.000000, 4.000000, 4.000000, 0.000000, 4.000000
82.000000, 0.000000, 4404.615234, 3834.871582, 3917.435791, 4132.820313, 4108.205078, 450.000000, 8112.000000, 8375.000000, 0.000000, 0.000000, 0.000000, 0.000000, 457.000015, 1557649763.417962, 4.000000, 4.000000, 4.000000, 0.000000, 4.000000
83.000000, 0.000000, 4404.102539, 3815.897461, 3924.102539, 4133.846191, 4121.025391, 16184.000000, 8116.000000, 8378.000000, 0.000000, 0.000000, 0.000000, 0.000000, 465.000015, 1557649763.425962, 4.000000, 4.000000, 4.000000, 0.000000, 4.000000
84.000000, 0.000000, 4412.307617, 3819.487061, 3932.820313, 4142.051270, 4120.512695, 450.000000, 8121.000000, 8381.000000, 0.000000, 0.000000, 0.000000, 0.000000, 473.000015, 1557649763.433962, 4.000000, 4.000000, 4.000000, 0.000000, 4.000000
85.000000, 0.000000, 4413.333008, 3844.615234, 3931.281982, 4143.076660, 4107.179199, 450.000000, 8122.000000, 8380.000000, 0.000000, 0.000000, 0.000000, 0.000000, 480.899979, 1557649763.441862, 4.000000, 4.000000, 4.000000, 0.000000, 4.000000
86.000000, 0.000000, 4406.153809, 3850.256348, 3924.615234, 4132.307617, 4104.102539, 450.000000, 8123.000000, 8383.000000, 0.000000, 0.000000, 0.000000, 0.000000, 488.700027, 1557649763.449662, 4.000000, 4.000000, 4.000000, 0.000000, 4.000000
87.000000, 0.000000, 4403.589844, 3844.102539, 3913.845947, 4132.820313, 4115.384277, 16184.000000, 8131.000000, 8378.000000, 0.000000, 0.000000, 0.000000, 0.000000, 496.399979, 1557649763.457362, 4.000000, 4.000000, 4.000000, 0.000000, 4.000000
88.000000, 0.000000, 4412.307617, 3847.692139, 3906.153809, 4143.589844, 4118.974121, 450.000000, 8133.000000, 8376.000000, 0.000000, 0.000000, 0.000000, 0.000000, 504.200027, 1557649763.465162, 4.000000, 4.000000, 4.000000, 0.000000, 4.000000
89.000000, 0.000000, 4425.127930, 3865.128174, 3910.769043, 4142.563965, 4110.256348, 450.000000, 8128.000000, 8383.000000, 0.000000, 0.000000, 0.000000, 0.000000, 512.000015, 1557649763.472962, 4.000000, 4.000000, 4.000000, 0.000000, 4.000000
90.000000, 0.000000, 4438.461426, 3882.051270, 3920.000000, 4135.897461, 4117.436035, 450.000000, 8133.000000, 8380.000000, 0.000000, 0.000000, 0.000000, 0.000000, 520.000015, 1557649763.480962, 4.000000, 4.000000, 4.000000, 0.000000, 4.000000
91.000000, 0.000000, 4445.641113, 3873.333252, 3930.769043, 4142.563965, 4135.384277, 16184.000000, 8136.000000, 8372.000000, 0.000000, 0.000000, 0.000000, 0.000000, 528.000015, 1557649763.488962, 4.000000, 4.000000, 4.000000, 0.000000, 4.000000
92.000000, 0.000000, 4435.897461, 3862.563965, 3922.051270, 4145.641113, 4131.281738, 450.000000, 8133.000000, 8366.000000, 0.000000, 0.000000, 0.000000, 0.000000, 536.000015, 1557649763.496962, 4.000000, 4.000000, 4.000000, 0.000000, 4.000000
93.000000, 0.000000, 4415.897461, 3873.845947, 3893.845947, 4128.717773, 4113.333008, 450.000000, 8133.000000, 8372.000000, 0.000000, 0.000000, 0.000000, 0.000000, 544.000015, 1557649763.504962, 4.000000, 4.000000, 4.000000, 0.000000, 4.000000
94.000000, 0.000000, 4410.769043, 3881.025635, 3892.820313, 4117.948730, 4115.384277, 450.000000, 8138.000000, 8377.000000, 0.000000, 0.000000, 0.000000, 0.000000, 551.800003, 1557649763.512762, 4.000000, 4.000000, 4.000000, 0.000000, 4.000000
95.000000, 0.000000, 4421.538574, 3881.025635, 3914.358887, 4126.153809, 4128.717773, 16184.000000, 8146.000000, 8372.000000, 0.000000, 0.000000, 0.000000, 0.000000, 559.599991, 1557649763.520562, 4.000000, 4.000000, 4.000000, 0.000000, 4.000000
96.000000, 0.000000, 4437.948730, 3899.487061, 3913.845947, 4138.974121, 4136.922852, 450.000000, 8148.000000, 8376.000000, 0.000000, 0.000000, 0.000000, 0.000000, 567.399979, 1557649763.528362, 4.000000, 4.000000, 4.000000, 0.000000, 4.000000
97.000000, 0.000000, 4447.692383, 3911.281982, 3909.230713, 4144.615234, 4146.153809, 450.000000, 8144.000000, 8367.000000, 0.000000, 0.000000, 0.000000, 0.000000, 575.200027, 1557649763.536162, 4.000000, 4.000000, 4.000000, 0.000000, 4.000000
98.000000, 0.000000, 4444.615234, 3893.845947, 3920.000000, 4144.102539, 4151.794922, 450.000000, 8144.000000, 8368.000000, 0.000000, 0.000000, 0.000000, 0.000000, 583.000015, 1557649763.543962, 4.000000, 4.000000, 4.000000, 0.000000, 4.000000
99.000000, 0.000000, 4446.153809, 3884.102539, 3923.076904, 4147.179199, 4149.230469, 16184.000000, 8143.000000, 8370.000000, 0.000000, 0.000000, 0.000000, 0.000000, 591.000015, 1557649763.551962, 4.000000, 4.000000, 4.000000, 0.000000, 4.000000
100.000000, 0.000000, 4441.538574, 3885.128174, 3908.717773, 4138.461426, 4132.820313, 450.000000, 8147.000000, 8364.000000, 0.000000, 0.000000, 0.000000, 0.000000, 599.000015, 1557649763.559962, 4.000000, 4.000000, 4.000000, 0.000000, 4.000000
101.000000, 0.000000, 4418.974121, 3884.102539, 3891.281982, 4123.589844, 4117.948730, 450.000000, 8149.000000, 8359.000000, 0.000000, 0.000000, 0.000000, 0.000000, 606.700027, 1557649763.567662, 4.000000, 4.000000, 4.000000, 0.000000, 4.000000
102.000000, 0.000000, 4407.179199, 3898.461426, 3889.743408, 4127.179199, 4120.512695, 450.000000, 8146.000000, 8360.000000, 0.000000, 0.000000, 0.000000, 0.000000, 614.500015, 1557649763.575462, 4.000000, 4.000000, 4.000000, 0.000000, 4.000000
103.000000, 0.000000, 4411.794922, 3901.025635, 3895.384521, 4133.333008, 4120.512695, 16184.000000, 8145.000000, 8367.000000, 0.000000, 0.000000, 0.000000, 0.000000, 622.500015, 1557649763.583462, 4.000000, 4.000000, 4.000000, 0.000000, 4.000000
104.000000, 0.000000, 4410.769043, 3886.666504, 3895.384521, 4128.205078, 4114.358887, 450.000000, 8150.000000, 8356.000000, 0.000000, 0.000000, 0.000000, 0.000000, 630.300003, 1557649763.591262, 4.000000, 4.000000, 4.000000, 0.000000, 4.000000
105.000000, 0.000000, 4414.358887, 3898.461426, 3901.538330, 4129.230469, 4118.974121, 450.000000, 8142.000000, 8352.000000, 0.000000, 0.000000, 0.000000, 0.000000, 638.099991, 1557649763.599062, 4.000000, 4.000000, 4.000000, 0.000000, 4.000000
106.000000, 0.000000, 4422.563965, 3915.384521, 3909.743408, 4136.922852, 4128.717773, 450.000000, 8139.000000, 8356.000000, 0.000000, 0.000000, 0.000000, 0.000000, 646.099991, 1557649763.607062, 4.000000, 4.000000, 4.000000, 0.000000, 4.000000
107.000000, 0.000000, 4422.051270, 3904.615234, 3902.563965, 4138.974121, 4132.820313, 16184.000000, 8136.000000, 8362.000000, 0.000000, 0.000000, 0.000000, 0.000000, 654.099991, 1557649763.615062, 4.000000, 4.000000, 4.000000, 0.000000, 4.000000
108.000000, 0.000000, 4412.820313, 3890.256348, 3887.692139, 4129.230469, 4124.102539, 450.000000, 8135.000000, 8352.000000, 0.000000, 0.000000, 0.000000, 0.000000, 662.000015, 1557649763.622962, 4.000000, 4.000000, 4.000000, 0.000000, 4.000000
109.000000, 0.000000, 4404.102539, 3893.845947, 3875.384521, 4120.000000, 4100.000000, 450.000000, 8138.000000, 8353.000000, 0.000000, 0.000000, 0.000000, 0.000000, 670.000015, 1557649763.630962, 4.000000, 4.000000, 4.000000, 0.000000, 4.000000
110.000000, 0.000000, 4404.615234, 3911.794678, 3869.743408, 4125.127930, 4091.794678, 450.000000, 8139.000000, 8357.000000, 0.000000, 0.000000, 0.000000, 0.000000, 677.899979, 1557649763.638862, 4.000000, 4.000000, 4.000000, 0.000000, 4.000000
111.000000, 0.000000, 4417.435547, 3942.563965, 3882.563965, 4133.333008, 4119.487305, 16184.000000, 8138.000000, 8359.000000, 0.000000, 0.000000, 0.000000, 0.000000, 685.700027, 1557649763.646662, 4.000000, 4.000000, 4.000000, 0.000000, 4.000000
112.000000, 0.000000, 4418.461426, 3954.871582, 3902.051270, 4136.922852, 4130.769043, 450.000000, 8132.000000, 8353.000000, 0.000000, 0.000000, 0.000000, 0.000000, 693.500015, 1557649763.654462, 4.000000, 4.000000, 4.000000, 0.000000, 4.000000
113.000000, 0.000000, 4400.512695, 3933.845947, 3892.820313, 4133.333008, 4108.205078, 450.000000, 8137.000000, 8346.000000, 0.000000, 0.000000, 0.000000, 0.000000, 701.300003, 1557649763.662262, 4.000000, 4.000000, 4.000000, 0.000000, 4.000000
114.000000, 0.000000, 4396.922852, 3940.512695, 3882.051270, 4129.230469, 4095.384521, 450.000000, 8138.000000, 8353.000000, 0.000000, 0.000000, 0.000000, 0.000000, 709.099991, 1557649763.670062, 4.000000, 4.000000, 4.000000, 0.000000, 4.000000
115.000000, 0.000000, 4410.256348, 3967.692139, 3892.820313, 4128.205078, 4105.641113, 16184.000000, 8136.000000, 8360.000000, 0.000000, 0.000000, 0.000000, 0.000000, 716.899979, 1557649763.677862, 4.000000, 4.000000, 4.000000, 0.000000, 4.000000
116.000000, 0.000000, 4413.333008, 3960.512695, 3892.307617, 4128.717773, 4120.000000, 450.000000, 8137.000000, 8357.000000, 0.000000, 0.000000, 0.000000, 0.000000, 724.899979, 1557649763.685862, 4.000000, 4.000000, 4.000000, 0.000000, 4.000000
117.000000, 0.000000, 4409.230469, 3949.230713, 3882.563965, 4132.820313, 4118.974121, 450.000000, 8143.000000, 8355.000000, 0.000000, 0.000000, 0.000000, 0.000000, 732.899979, 1557649763.693862, 4.000000, 4.000000, 4.000000, 0.000000, 4.000000
118.000000, 0.000000, 4408.717773, 3964.615234, 3886.666504, 4126.153809, 4110.256348, 450.000000, 8142.000000, 8347.000000, 0.000000, 0.000000, 0.000000, 0.000000, 740.899979, 1557649763.701862, 4.000000, 4.000000, 4.000000, 0.000000, 4.000000
119.000000, 0.000000, 4406.666504, 3973.845947, 3890.769043, 4116.922852, 4109.743652, 16184.000000, 8140.000000, 8352.000000, 0.000000, 0.000000, 0.000000, 0.000000, 748.899979, 1557649763.709862, 4.000000, 4.000000, 4.000000, 0.000000, 4.000000
120.000000, 0.000000, 4404.615234, 3970.256348, 3888.717773, 4125.641113, 4110.256348, 450.000000, 8139.000000, 8350.000000, 0.000000, 0.000000, 0.000000, 0.000000, 756.700027, 1557649763.717662, 4.000000, 4.000000, 4.000000, 0.000000, 4.000000
121.000000, 0.000000, 4410.256348, 3981.538330, 3897.435791, 4137.948730, 4107.179199, 450.000000, 8134.000000, 8334.000000, 0.000000, 0.000000, 0.000000, 0.000000, 764.399979, 1557649763.725362, 4.000000, 4.000000, 4.000000, 0.000000, 4.000000
122.000000, 0.000000, 4417.435547, 3995.897217, 3910.769043, 4134.871582, 4102.051270, 450.000000, 8139.000000, 8329.000000, 0.000000, 0.000000, 0.000000, 0.000000, 772.200027, 1557649763.733162, 4.000000, 4.000000, 4.000000, 0.000000, 4.000000
123.000000, 0.000000, 4414.871582, 3997.435791, 3911.281982, 4126.666504, 4094.358887, 16184.000000, 8142.000000, 8335.000000, 0.000000, 0.000000, 0.000000, 0.000000, 780.000015, 1557649763.740962, 4.000000, 4.000000, 4.000000, 0.000000, 4.000000
124.000000, 0.000000, 4406.666504, 4003.589600, 3906.666504, 4130.256348, 4095.897217, 450.000000, 8139.000000, 8321.000000, 0.000000, 0.000000, 0.000000, 0.000000, 787.900003, 1557649763.748862, 4.000000, 4.000000, 4.000000, 0.000000, 4.000000
125.000000, 0.000000, 4406.666504, 4017.435791, 3910.769043, 4138.461426, 4107.179199, 450.000000, 8135.000000, 8320.000000, 0.000000, 0.000000, 0.000000, 0.000000, 795.900003, 1557649763.756862, 4.000000, 4.000000, 4.000000, 0.000000, 4.000000
126.000000, 0.000000, 4413.333008, 4024.615234, 3915.384521, 4132.820313, 4102.563965, 450.000000, 8137.000000, 8319.000000, 0.000000, 0.000000, 0.000000, 0.000000, 803.900003, 1557649763.764862, 4.000000, 4.000000, 4.000000, 0.000000, 4.000000
127.000000, 0.000000, 4412.820313, 4023.076904, 3907.692139, 4123.589844, 4086.666504, 16184.000000, 8130.000000, 8313.000000, 0.000000, 0.000000, 0.000000, 0.000000, 811.900003, 1557649763.772862, 4.000000, 4.000000, 4.000000, 0.000000, 4.000000
128.000000, 0.000000, 4403.589844, 4020.512695, 3897.435791, 4122.051270, 4088.717773, 500.000000, 8126.000000, 8318.000000, 0.000000, 0.000000, 0.000000, 0.000000, 819.600002, 1557649763.780562, 4.000000, 4.000000, 4.000000, 0.000000, 4.000000
0.000000, 0.000000, 4402.563965, 4029.230713, 3894.358887, 4126.153809, 4095.384521, 500.000000, 8124.000000, 8330.000000, 0.000000, 0.000000, 0.000000, 0.000000, 827.400002, 1557649763.788362, 4.000000, 4.000000, 4.000000, 0.000000, 4.000000
1.000000, 0.000000, 4406.666504, 4052.307617, 3899.487061, 4131.281738, 4097.436035, 500.000000, 8123.000000, 8318.000000, 0.000000, 0.000000, 0.000000, 0.000000, 835.200005, 1557649763.796162, 4.000000, 4.000000, 4.000000, 0.000000, 4.000000
2.000000, 0.000000, 4401.025391, 4061.025635, 3906.153809, 4130.256348, 4093.333252, 16173.000000, 8116.000000, 8314.000000, 0.000000, 0.000000, 0.000000, 0.000000, 843.000004, 1557649763.803962, 4.000000, 4.000000, 4.000000, 0.000000, 4.000000
3.000000, 0.000000, 4396.410156, 4059.487061, 3902.563965, 4124.102539, 4079.487061, 500.000000, 8117.000000, 8325.000000, 0.000000, 0.000000, 0.000000, 0.000000, 851.000000, 1557649763.811962, 4.000000, 4.000000, 4.000000, 0.000000, 4.000000
4.000000, 0.000000, 4401.025391, 4076.410156, 3893.845947, 4116.922852, 4072.307617, 16164.000000, 8115.000000, 8329.000000, 0.000000, 0.000000, 0.000000, 0.000000, 859.000000, 1557649763.819962, 4.000000, 4.000000, 4.000000, 0.000000, 4.000000
5.000000, 0.000000, 4399.487305, 4094.871582, 3891.281982, 4106.666504, 4073.333252, 500.000000, 8120.000000, 8316.000000, 0.000000, 0.000000, 0.000000, 0.000000, 867.000000, 1557649763.827962, 4.000000, 4.000000, 4.000000, 0.000000, 4.000000
6.000000, 0.000000, 4388.205078, 4101.025391, 3893.845947, 4104.615234, 4069.230713, 16181.000000, 8116.000000, 8327.000000, 0.000000, 0.000000, 0.000000, 0.000000, 874.900002, 1557649763.835862, 4.000000, 4.000000, 4.000000, 0.000000, 4.000000
7.000000, 0.000000, 4385.127930, 4118.461426, 3897.435791, 4113.846191, 4061.538330, 500.000000, 8126.000000, 8338.000000, 0.000000, 0.000000, 0.000000, 0.000000, 882.900002, 1557649763.843862, 4.000000, 4.000000, 4.000000, 0.000000, 4.000000
8.000000, 0.000000, 4391.281738, 4156.922852, 3906.666504, 4118.461426, 4064.102539, 500.000000, 8129.000000, 8341.000000, 0.000000, 0.000000, 0.000000, 0.000000, 890.700005, 1557649763.851662, 4.000000, 4.000000, 4.000000, 0.000000, 4.000000
9.000000, 0.000000, 4391.794922, 4198.974121, 3916.410156, 4114.871582, 4077.435791, 10.000000, 8132.000000, 8342.000000, 0.000000, 0.000000, 0.000000, 0.000000, 898.500000, 1557649763.859462, 4.000000, 4.000000, 4.000000, 0.000000, 4.000000
10.000000, 0.000000, 4382.051270, 4229.743652, 3908.717773, 4115.897461, 4078.461426, 500.000000, 8135.000000, 8346.000000, 0.000000, 0.000000, 0.000000, 0.000000, 906.500000, 1557649763.867462, 4.000000, 4.000000, 4.000000, 0.000000, 4.000000
11.000000, 0.000000, 4380.000000, 4245.127930, 3894.358887, 4113.846191, 4063.589600, 16185.000000, 8144.000000, 8348.000000, 0.000000, 0.000000, 0.000000, 0.000000, 914.300003, 1557649763.875262, 4.000000, 4.000000, 4.000000, 0.000000, 4.000000
12.000000, 0.000000, 4402.563965, 4278.974121, 3901.538330, 4111.794922, 4068.717773, 500.000000, 8143.000000, 8358.000000, 0.000000, 0.000000, 0.000000, 0.000000, 922.300003, 1557649763.883262, 4.000000, 4.000000, 4.000000, 0.000000, 4.000000
13.000000, 0.000000, 4417.435547, 4324.615234, 3915.897461, 4126.666504, 4093.333252, 500.000000, 8139.000000, 8373.000000, 0.000000, 0.000000, 0.000000, 0.000000, 930.000000, 1557649763.890962, 4.000000, 4.000000, 4.000000, 0.000000, 4.000000
14.000000, 0.000000, 4407.179199, 4332.820313, 3905.640869, 4129.743652, 4092.820313, 450.000000, 8141.000000, 8365.000000, 0.000000, 0.000000, 0.000000, 0.000000, 937.900009, 1557649763.898862, 4.000000, 4.000000, 4.000000, 0.000000, 4.000000
15.000000, 0.000000, 4404.102539, 4323.589844, 3895.384521, 4112.820313, 4076.923096, 16185.000000, 8144.000000, 8372.000000, 0.000000, 0.000000, 0.000000, 0.000000, 945.900009, 1557649763.906862, 4.000000, 4.000000, 4.000000, 0.000000, 4.000000
16.000000, 0.000000, 4412.820313, 4349.230469, 3909.230713, 4116.922852, 4077.435791, 0.000000, 8148.000000, 8386.000000, 0.000000, 0.000000, 0.000000, 0.000000, 953.699997, 1557649763.914662, 4.000000, 4.000000, 4.000000, 0.000000, 4.000000
17.000000, 0.000000, 4413.846191, 4387.692383, 3917.948730, 4126.666504, 4084.615234, 0.000000, 8159.000000, 8394.000000, 0.000000, 0.000000, 0.000000, 0.000000, 961.500000, 1557649763.922462, 4.000000, 4.000000, 4.000000, 0.000000, 4.000000
18.000000, 0.000000, 4404.615234, 4380.512695, 3901.025635, 4113.846191, 4078.974365, 0.000000, 8164.000000, 8388.000000, 0.000000, 0.000000, 0.000000, 0.000000, 969.300003, 1557649763.930262, 4.000000, 4.000000, 4.000000, 0.000000, 4.000000
19.000000, 0.000000, 4395.897461, 4362.563965, 3878.974365, 4104.102539, 4067.179443, 0.000000, 8155.000000, 8382.000000, 0.000000, 0.000000, 0.000000, 0.000000, 977.100006, 1557649763.938062, 4.000000, 4.000000, 4.000000, 0.000000, 4.000000
20.000000, 0.000000, 4402.051270, 4388.205078, 3874.871582, 4110.769043, 4060.512695, 0.000000, 8158.000000, 8395.000000, 0.000000, 0.000000, 0.000000, 0.000000, 985.000000, 1557649763.945962, 4.000000, 4.000000, 4.000000, 0.000000, 4.000000
21.000000, 0.000000, 4412.307617, 4417.948730, 3882.563965, 4113.333008, 4060.000000, 0.000000, 8160.000000, 8396.000000, 0.000000, 0.000000, 0.000000, 0.000000, 992.900009, 1557649763.953862, 4.000000, 4.000000, 4.000000, 0.000000, 4.000000
22.000000, 0.000000, 4400.000000, 4418.974121, 3879.487061, 4102.051270, 4062.563965, 0.000000, 8160.000000, 8387.000000, 0.000000, 0.000000, 0.000000, 1.000000, 0.900009, 1557649763.961862, 4.000000, 4.000000, 4.000000, 0.000000, 4.000000
23.000000, 0.000000, 4376.922852, 4426.666504, 3874.871582, 4094.358887, 4061.538330, 0.000000, 8160.000000, 8393.000000, 0.000000, 0.000000, 0.000000, 1.000000, 8.900009, 1557649763.969862, 4.000000, 4.000000, 4.000000, 0.000000, 4.000000
24.000000, 0.000000, 4381.538574, 4452.820313, 3880.000000, 4097.436035, 4052.820313, 0.000000, 8164.000000, 8397.000000, 0.000000, 0.000000, 0.000000, 1.000000, 16.699997, 1557649763.977662, 4.000000, 4.000000, 4.000000, 0.000000, 4.000000
25.000000, 0.000000, 4393.846191, 4463.076660, 3882.051270, 4095.897217, 4044.102539, 0.000000, 8155.000000, 8381.000000, 0.000000, 0.000000, 0.000000, 1.000000, 24.500000, 1557649763.985462, 4.000000, 4.000000, 4.000000, 0.000000, 4.000000
26.000000, 0.000000, 4395.384277, 4474.871582, 3881.538330, 4096.922852, 4048.205078, 0.000000, 8155.000000, 8392.000000, 0.000000, 0.000000, 0.000000, 1.000000, 32.300003, 1557649763.993262, 4.000000, 4.000000, 4.000000, 0.000000, 4.000000
27.000000, 0.000000, 4400.512695, 4505.641113, 3880.512695, 4095.897217, 4052.307617, 0.000000, 8146.000000, 8446.000000, 0.000000, 0.000000, 0.000000, 1.000000, 40.199997, 1557649764.001162, 4.000000, 4.000000, 4.000000, 0.000000, 4.000000
28.000000, 0.000000, 4399.487305, 4525.127930, 3877.948730, 4088.205078, 4045.128174, 0.000000, 8150.000000, 8372.000000, 0.000000, 0.000000, 0.000000, 1.000000, 48.000015, 1557649764.008962, 4.000000, 4.000000, 4.000000, 0.000000, 4.000000
29.000000, 0.000000, 4390.769043, 4526.153809, 3879.487061, 4090.769043, 4042.563965, 0.000000, 8146.000000, 8382.000000, 0.000000, 0.000000, 0.000000, 1.000000, 56.000015, 1557649764.016962, 4.000000, 4.000000, 4.000000, 0.000000, 4.000000
30.000000, 0.000000, 4390.769043, 4532.307617, 3880.000000, 4094.871582, 4043.076904, 0.000000, 8145.000000, 8383.000000, 0.000000, 0.000000, 0.000000, 1.000000, 64.000015, 1557649764.024962, 4.000000, 4.000000, 4.000000, 0.000000, 4.000000
31.000000, 0.000000, 4398.461426, 4561.538574, 3878.461426, 4098.974121, 4044.102539, 0.000000, 8141.000000, 8370.000000, 0.000000, 0.000000, 0.000000, 1.000000, 72.000015, 1557649764.032962, 4.000000, 4.000000, 4.000000, 0.000000, 4.000000
32.000000, 0.000000, 4406.666504, 4599.487305, 3885.640869, 4105.127930, 4048.205078, 0.000000, 8133.000000, 8363.000000, 0.000000, 0.000000, 0.000000, 1.000000, 80.000015, 1557649764.040962, 4.000000, 4.000000, 4.000000, 0.000000, 4.000000
33.000000, 0.000000, 4416.410156, 4635.384277, 3895.384521, 4108.717773, 4047.692139, 0.000000, 8134.000000, 8374.000000, 0.000000, 0.000000, 0.000000, 1.000000, 87.699997, 1557649764.048662, 4.000000, 4.000000, 4.000000, 0.000000, 4.000000
34.000000, 0.000000, 4412.307617, 4656.922852, 3898.461426, 4109.230469, 4033.845947, 0.000000, 8130.000000, 8374.000000, 0.000000, 0.000000, 0.000000, 1.000000, 95.500015, 1557649764.056462, 4.000000, 4.000000, 4.000000, 0.000000, 4.000000
35.000000, 0.000000, 4402.051270, 4652.820313, 3893.333252, 4107.179199, 4025.128174, 0.000000, 8129.000000, 8372.000000, 0.000000, 0.000000, 0.000000, 1.000000, 103.300003, 1557649764.064262, 4.000000, 4.000000, 4.000000, 0.000000, 4.000000
36.000000, 0.000000, 4416.922852, 4651.794922, 3892.307617, 4105.641113, 4042.051270, 0.000000, 8122.000000, 8375.000000, 0.000000, 0.000000, 0.000000, 1.000000, 111.099991, 1557649764.072062, 4.000000, 4.000000, 4.000000, 0.000000, 4.000000
37.000000, 0.000000, 4428.717773, 4677.435547, 3897.435791, 4100.512695, 4060.000000, 0.000000, 8120.000000, 8383.000000, 0.000000, 0.000000, 0.000000, 1.000000, 118.900009, 1557649764.079862, 4.000000, 4.000000, 4.000000, 0.000000, 4.000000
38.000000, 0.000000, 4421.538574, 4699.487305, 3892.307617, 4099.487305, 4051.281982, 0.000000, 8124.000000, 8387.000000, 0.000000, 0.000000, 0.000000, 1.000000, 126.900009, 1557649764.087862, 4.000000, 4.000000, 4.000000, 0.000000, 4.000000
39.000000, 0.000000, 4423.589844, 4705.641113, 3883.076904, 4109.230469, 4043.589600, 0.000000, 8119.000000, 8394.000000, 0.000000, 0.000000, 0.000000, 1.000000, 134.900009, 1557649764.095862, 4.000000, 4.000000, 4.000000, 0.000000, 4.000000
40.000000, 0.000000, 4433.333008, 4709.230469, 3880.000000, 4117.948730, 4056.410156, 0.000000, 8119.000000, 8394.000000, 0.000000, 0.000000, 0.000000, 1.000000, 142.800003, 1557649764.103762, 4.000000, 4.000000, 4.000000, 0.000000, 4.000000
41.000000, 0.000000, 4435.384277, 4709.230469, 3884.615234, 4124.615234, 4064.615234, 0.000000, 8117.000000, 8383.000000, 0.000000, 0.000000, 0.000000, 1.000000, 150.599991, 1557649764.111562, 4.000000, 4.000000, 4.000000, 0.000000, 4.000000
42.000000, 0.000000, 4428.205078, 4736.922852, 3895.384521, 4125.641113, 4062.563965, 0.000000, 8108.000000, 8382.000000, 0.000000, 0.000000, 0.000000, 1.000000, 158.400009, 1557649764.119362, 4.000000, 4.000000, 4.000000, 0.000000, 4.000000
43.000000, 0.000000, 4413.333008, 4787.179199, 3898.974365, 4120.512695, 4062.051270, 0.000000, 8117.000000, 8379.000000, 0.000000, 0.000000, 0.000000, 1.000000, 166.199997, 1557649764.127162, 4.000000, 4.000000, 4.000000, 0.000000, 4.000000
44.000000, 0.000000, 4405.641113, 4798.461426, 3888.717773, 4118.461426, 4053.845947, 0.000000, 8116.000000, 8367.000000, 0.000000, 0.000000, 0.000000, 1.000000, 174.099991, 1557649764.135062, 4.000000, 4.000000, 4.000000, 0.000000, 4.000000
45.000000, 0.000000, 4413.846191, 4780.000000, 3875.897461, 4114.871582, 4042.051270, 0.000000, 8107.000000, 8359.000000, 0.000000, 0.000000, 0.000000, 1.000000, 182.000015, 1557649764.142962, 4.000000, 4.000000, 4.000000, 0.000000, 4.000000
46.000000, 0.000000, 4408.717773, 4773.846191, 3871.794678, 4108.205078, 4037.948730, 0.000000, 8106.000000, 8368.000000, 0.000000, 0.000000, 0.000000, 1.000000, 190.000015, 1557649764.150962, 4.000000, 4.000000, 4.000000, 0.000000, 4.000000
47.000000, 0.000000, 4396.410156, 4780.512695, 3871.794678, 4103.589844, 4032.307617, 0.000000, 8103.000000, 8360.000000, 0.000000, 0.000000, 0.000000, 1.000000, 197.900009, 1557649764.158862, 4.000000, 4.000000, 4.000000, 0.000000, 4.000000
48.000000, 0.000000, 4408.717773, 4779.487305, 3878.974365, 4107.179199, 4030.256348, 0.000000, 8106.000000, 8349.000000, 0.000000, 0.000000, 0.000000, 1.000000, 205.900009, 1557649764.166862, 4.000000, 4.000000, 4.000000, 0.000000, 4.000000
49.000000, 0.000000, 4425.641113, 4769.230469, 3888.205078, 4115.384277, 4037.435791, 0.000000, 8104.000000, 8362.000000, 0.000000, 0.000000, 0.000000, 1.000000, 213.699997, 1557649764.174662, 4.000000, 4.000000, 4.000000, 0.000000, 4.000000
50.000000, 0.000000, 4432.820313, 4765.641113, 3894.871582, 4120.512695, 4045.128174, 0.000000, 8104.000000, 8367.000000, 0.000000, 0.000000, 0.000000, 1.000000, 221.500015, 1557649764.182462, 4.000000, 4.000000, 4.000000, 0.000000, 4.000000
51.000000, 0.000000, 4441.538574, 4782.051270, 3899.487061, 4122.563965, 4055.384521, 0.000000, 8103.000000, 8362.000000, 0.000000, 0.000000, 0.000000, 1.000000, 229.300003, 1557649764.190262, 4.000000, 4.000000, 4.000000, 0.000000, 4.000000
52.000000, 0.000000, 4445.641113, 4780.512695, 3888.205078, 4115.384277, 4061.025635, 0.000000, 8103.000000, 8361.000000, 0.000000, 0.000000, 0.000000, 1.000000, 237.099991, 1557649764.198062, 4.000000, 4.000000, 4.000000, 0.000000, 4.000000
53.000000, 0.000000, 4442.563965, 4763.076660, 3873.333252, 4110.769043, 4060.000000, 0.000000, 8100.000000, 8370.000000, 0.000000, 0.000000, 0.000000, 1.000000, 244.900009, 1557649764.205862, 4.000000, 4.000000, 4.000000, 0.000000, 4.000000
54.000000, 0.000000, 4441.025391, 4775.897461, 3879.487061, 4116.410156, 4060.000000, 0.000000, 8107.000000, 8360.000000, 0.000000, 0.000000, 0.000000, 1.000000, 252.800003, 1557649764.213762, 4.000000, 4.000000, 4.000000, 0.000000, 4.000000
55.000000, 0.000000, 4435.897461, 4781.025391, 3889.230713, 4115.384277, 4055.384521, 0.000000, 8112.000000, 8368.000000, 0.000000, 0.000000, 0.000000, 1.000000, 260.800003, 1557649764.221762, 4.000000, 4.000000, 4.000000, 0.000000, 4.000000
56.000000, 0.000000, 4435.384277, 4767.179199, 3895.897461, 4114.871582, 4052.820313, 0.000000, 8114.000000, 8374.000000, 0.000000, 0.000000, 0.000000, 1.000000, 268.800003, 1557649764.229762, 4.000000, 4.000000, 4.000000, 0.000000, 4.000000
57.000000, 0.000000, 4448.205078, 4774.358887, 3906.153809, 4122.563965, 4065.640869, 0.000000, 8118.000000, 8364.000000, 0.000000, 0.000000, 0.000000, 1.000000, 276.800003, 1557649764.237762, 4.000000, 4.000000, 4.000000, 0.000000, 4.000000
58.000000, 0.000000, 4450.769043, 4777.435547, 3902.051270, 4121.025391, 4065.128174, 0.000000, 8127.000000, 8359.000000, 0.000000, 0.000000, 0.000000, 1.000000, 284.599991, 1557649764.245562, 4.000000, 4.000000, 4.000000, 0.000000, 4.000000
59.000000, 0.000000, 4443.589844, 4768.717773, 3886.666504, 4113.846191, 4044.615234, 0.000000, 8122.000000, 8370.000000, 0.000000, 0.000000, 0.000000, 1.000000, 292.400009, 1557649764.253362, 4.000000, 4.000000, 4.000000, 0.000000, 4.000000
60.000000, 0.000000, 4437.435547, 4766.153809, 3889.230713, 4113.333008, 4041.025635, 0.000000, 8133.000000, 8372.000000, 0.000000, 0.000000, 0.000000, 1.000000, 300.200027, 1557649764.261162, 4.000000, 4.000000, 4.000000, 0.000000, 4.000000
61.000000, 0.000000, 4433.333008, 4759.487305, 3905.640869, 4118.974121, 4052.307617, 0.000000, 8137.000000, 8362.000000, 0.000000, 0.000000, 0.000000, 1.000000, 307.899979, 1557649764.268862, 4.000000, 4.000000, 4.000000, 0.000000, 4.000000
62.000000, 0.000000, 4437.948730, 4749.230469, 3910.769043, 4125.127930, 4048.717773, 0.000000, 8135.000000, 8366.000000, 0.000000, 0.000000, 0.000000, 1.000000, 315.899979, 1557649764.276862, 4.000000, 4.000000, 4.000000, 0.000000, 4.000000
63.000000, 0.000000, 4446.666504, 4753.846191, 3909.230713, 4127.692383, 4049.743408, 0.000000, 8137.000000, 8372.000000, 0.000000, 0.000000, 0.000000, 1.000000, 323.899979, 1557649764.284862, 4.000000, 4.000000, 4.000000, 0.000000, 4.000000
64.000000, 0.000000, 4448.717773, 4752.820313, 3911.281982, 4130.256348, 4057.435791, 500.000000, 8142.000000, 8376.000000, 0.000000, 0.000000, 0.000000, 1.000000, 331.899979, 1557649764.292862, 4.000000, 4.000000, 4.000000, 0.000000, 4.000000
65.000000, 0.000000, 4446.666504, 4737.435547, 3904.102539, 4124.102539, 4050.256348, 500.000000, 8141.000000, 8378.000000, 0.000000, 0.000000, 0.000000, 1.000000, 339.899979, 1557649764.300862, 4.000000, 4.000000, 4.000000, 0.000000, 4.000000
66.000000, 0.000000, 4441.025391, 4726.153809, 3886.153809, 4104.615234, 4033.333252, 16188.000000, 8139.000000, 8383.000000, 0.000000, 0.000000, 0.000000, 1.000000, 347.700027, 1557649764.308662, 4.000000, 4.000000, 4.000000, 0.000000, 4.000000
67.000000, 0.000000, 4425.641113, 4710.769043, 3871.794678, 4094.358887, 4021.538330, 500.000000, 8141.000000, 8388.000000, 0.000000, 0.000000, 0.000000, 1.000000, 355.399979, 1557649764.316362, 4.000000, 4.000000, 4.000000, 0.000000, 4.000000
68.000000, 0.000000, 4423.076660, 4708.205078, 3883.076904, 4105.641113, 4025.640869, 16144.000000, 8137.000000, 8382.000000, 0.000000, 0.000000, 0.000000, 1.000000, 363.200027, 1557649764.324162, 4.000000, 4.000000, 4.000000, 0.000000, 4.000000
69.000000, 0.000000, 4445.641113, 4720.000000, 3906.666504, 4123.076660, 4045.640869, 500.000000, 8139.000000, 8392.000000, 0.000000, 0.000000, 0.000000, 1.000000, 371.200027, 1557649764.332162, 4.000000, 4.000000, 4.000000, 0.000000, 4.000000
70.000000, 0.000000, 4466.666504, 4720.512695, 3915.384521, 4128.717773, 4065.640869, 16159.000000, 8133.000000, 8397.000000, 0.000000, 0.000000, 0.000000, 1.000000, 379.000015, 1557649764.339962, 4.000000, 4.000000, 4.000000, 0.000000, 4.000000
71.000000, 0.000000, 4463.589844, 4712.820313, 3908.205078, 4122.563965, 4061.538330, 500.000000, 8129.000000, 8392.000000, 0.000000, 0.000000, 0.000000, 1.000000, 387.000015, 1557649764.347962, 4.000000, 4.000000, 4.000000, 0.000000, 4.000000
72.000000, 0.000000, 4445.127930, 4696.922852, 3893.333252, 4113.846191, 4037.948730, 500.000000, 8127.000000, 8383.000000, 0.000000, 0.000000, 0.000000, 1.000000, 395.000015, 1557649764.355962, 4.000000, 4.000000, 4.000000, 0.000000, 4.000000
73.000000, 0.000000, 4444.102539, 4692.307617, 3887.692139, 4117.948730, 4034.871582, 12.000000, 8123.000000, 8397.000000, 0.000000, 0.000000, 0.000000, 1.000000, 402.800003, 1557649764.363762, 4.000000, 4.000000, 4.000000, 0.000000, 4.000000
74.000000, 0.000000, 4455.384277, 4695.384277, 3893.333252, 4124.615234, 4047.179443, 500.000000, 8120.000000, 8386.000000, 0.000000, 0.000000, 0.000000, 1.000000, 410.700027, 1557649764.371662, 4.000000, 4.000000, 4.000000, 0.000000, 4.000000
75.000000, 0.000000, 4451.794922, 4673.333008, 3894.871582, 4120.000000, 4041.538330, 16185.000000, 8109.000000, 8373.000000, 0.000000, 0.000000, 0.000000, 1.000000, 418.500015, 1557649764.379462, 4.000000, 4.000000, 4.000000, 0.000000, 4.000000
76.000000, 0.000000, 4444.102539, 4646.153809, 3890.769043, 4116.922852, 4030.769043, 500.000000, 8111.000000, 8360.000000, 0.000000, 0.000000, 0.000000, 1.000000, 426.300003, 1557649764.387262, 4.000000, 4.000000, 4.000000, 0.000000, 4.000000
77.000000, 0.000000, 4447.692383, 4653.333008, 3887.179443, 4117.948730, 4032.307617, 500.000000, 8111.000000, 8361.000000, 0.000000, 0.000000, 0.000000, 1.000000, 434.200027, 1557649764.395162, 4.000000, 4.000000, 4.000000, 0.000000, 4.000000
78.000000, 0.000000, 4447.179199, 4657.948730, 3877.435791, 4108.717773, 4026.153809, 450.000000, 8117.000000, 8352.000000, 0.000000, 0.000000, 0.000000, 1.000000, 442.000015, 1557649764.402962, 4.000000, 4.000000, 4.000000, 0.000000, 4.000000
79.000000, 0.000000, 4439.487305, 4636.922852, 3873.845947, 4106.153809, 4022.051270, 16185.000000, 8121.000000, 8343.000000, 0.000000, 0.000000, 0.000000, 1.000000, 450.000015, 1557649764.410962, 4.000000, 4.000000, 4.000000, 0.000000, 4.000000
80.000000, 0.000000, 4442.051270, 4628.205078, 3881.025635, 4116.410156, 4037.435791, 450.000000, 8125.000000, 8339.000000, 0.000000, 0.000000, 0.000000, 1.000000, 458.000015, 1557649764.418962, 4.000000, 4.000000, 4.000000, 0.000000, 4.000000
81.000000, 0.000000, 4452.820313, 4630.256348, 3880.000000, 4115.384277, 4042.563965, 450.000000, 8121.000000, 8331.000000, 0.000000, 0.000000, 0.000000, 1.000000, 465.899979, 1557649764.426862, 4.000000, 4.000000, 4.000000, 0.000000, 4.000000
82.000000, 0.000000, 4458.974121, 4616.922852, 3881.025635, 4112.307617, 4023.076904, 450.000000, 8126.000000, 8335.000000, 0.000000, 0.000000, 0.000000, 1.000000, 473.899979, 1557649764.434862, 4.000000, 4.000000, 4.000000, 0.000000, 4.000000
83.000000, 0.000000, 4457.435547, 4601.538574, 3895.384521, 4115.897461, 4014.871582, 16185.000000, 8126.000000, 8337.000000, 0.000000, 0.000000, 0.000000, 1.000000, 481.700027, 1557649764.442662, 4.000000, 4.000000, 4.000000, 0.000000, 4.000000
84.000000, 0.000000, 4464.615234, 4607.692383, 3911.281982, 4121.025391, 4036.410156, 450.000000, 8131.000000, 8328.000000, 0.000000, 0.000000, 0.000000, 1.000000, 489.500015, 1557649764.450462, 4.000000, 4.000000, 4.000000, 0.000000, 4.000000
85.000000, 0.000000, 4480.512695, 4616.922852, 3918.974365, 4131.794922, 4060.000000, 450.000000, 8126.000000, 8328.000000, 0.000000, 0.000000, 0.000000, 1.000000, 497.300003, 1557649764.458262, 4.000000, 4.000000, 4.000000, 0.000000, 4.000000
86.000000, 0.000000, 4468.717773, 4587.692383, 3911.281982, 4131.281738, 4046.666504, 450.000000, 8126.000000, 8339.000000, 0.000000, 0.000000, 0.000000, 1.000000, 505.099991, 1557649764.466062, 4.000000, 4.000000, 4.000000, 0.000000, 4.000000
87.000000, 0.000000, 4439.487305, 4551.281738, 3898.461426, 4117.436035, 4015.384521, 16185.000000, 8126.000000, 8346.000000, 0.000000, 0.000000, 0.000000, 1.000000, 513.099991, 1557649764.474062, 4.000000, 4.000000, 4.000000, 0.000000, 4.000000
88.000000, 0.000000, 4442.563965, 4552.307617, 3894.358887, 4108.717773, 4010.769043, 450.000000, 8131.000000, 8339.000000, 0.000000, 0.000000, 0.000000, 1.000000, 520.899979, 1557649764.481862, 4.000000, 4.000000, 4.000000, 0.000000, 4.000000
89.000000, 0.000000, 4455.384277, 4558.461426, 3893.333252, 4110.769043, 4022.051270, 450.000000, 8126.000000, 8350.000000, 0.000000, 0.000000, 0.000000, 1.000000, 528.899979, 1557649764.489862, 4.000000, 4.000000, 4.000000, 0.000000, 4.000000
90.000000, 0.000000, 4449.743652, 4551.281738, 3895.897461, 4111.794922, 4026.153809, 450.000000, 8123.000000, 8340.000000, 0.000000, 0.000000, 0.000000, 1.000000, 536.899979, 1557649764.497862, 4.000000, 4.000000, 4.000000, 0.000000, 4.000000
91.000000, 0.000000, 4453.333008, 4550.769043, 3907.692139, 4113.846191, 4031.794678, 16185.000000, 8124.000000, 8343.000000, 0.000000, 0.000000, 0.000000, 1.000000, 544.899979, 1557649764.505862, 4.000000, 4.000000, 4.000000, 0.000000, 4.000000
92.000000, 0.000000, 4462.563965, 4546.153809, 3913.333252, 4123.076660, 4038.974365, 450.000000, 8121.000000, 8342.000000, 0.000000, 0.000000, 0.000000, 1.000000, 552.700027, 1557649764.513662, 4.000000, 4.000000, 4.000000, 0.000000, 4.000000
93.000000, 0.000000, 4451.281738, 4537.435547, 3912.307617, 4125.127930, 4033.333252, 450.000000, 8124.000000, 8341.000000, 0.000000, 0.000000, 0.000000, 1.000000, 560.500015, 1557649764.521462, 4.000000, 4.000000, 4.000000, 0.000000, 4.000000
94.000000, 0.000000, 4435.384277, 4535.384277, 3912.307617, 4123.589844, 4018.974365, 450.000000, 8117.000000, 8338.000000, 0.000000, 0.000000, 0.000000, 1.000000, 568.300003, 1557649764.529262, 4.000000, 4.000000, 4.000000, 0.000000, 4.000000
95.000000, 0.000000, 4444.102539, 4527.179199, 3909.230713, 4124.102539, 4017.948730, 16185.000000, 8122.000000, 8337.000000, 0.000000, 0.000000, 0.000000, 1.000000, 576.000015, 1557649764.536962, 4.000000, 4.000000, 4.000000, 0.000000, 4.000000
96.000000, 0.000000, 4461.025391, 4510.769043, 3909.230713, 4118.461426, 4035.384521, 450.000000, 8116.000000, 8337.000000, 0.000000, 0.000000, 0.000000, 1.000000, 584.000015, 1557649764.544962, 4.000000, 4.000000, 4.000000, 0.000000, 4.000000
97.000000, 0.000000, 4464.615234, 4504.615234, 3912.307617, 4113.333008, 4039.487061, 450.000000, 8119.000000, 8327.000000, 0.000000, 0.000000, 0.000000, 1.000000, 591.899979, 1557649764.552862, 4.000000, 4.000000, 4.000000, 0.000000, 4.000000
98.000000, 0.000000, 4458.461426, 4506.153809, 3910.256348, 4108.205078, 4032.307617, 450.000000, 8127.000000, 8323.000000, 0.000000, 0.000000, 0.000000, 1.000000, 599.899979, 1557649764.560862, 4.000000, 4.000000, 4.000000, 0.000000, 4.000000
99.000000, 0.000000, 4454.358887, 4499.487305, 3908.205078, 4108.717773, 4037.948730, 16185.000000, 8129.000000, 8328.000000, 0.000000, 0.000000, 0.000000, 1.000000, 607.899979, 1557649764.568862, 4.000000, 4.000000, 4.000000, 0.000000, 4.000000
100.000000, 0.000000, 4461.025391, 4494.358887, 3907.692139, 4118.974121, 4045.128174, 450.000000, 8132.000000, 8327.000000, 0.000000, 0.000000, 0.000000, 1.000000, 615.700027, 1557649764.576662, 4.000000, 4.000000, 4.000000, 0.000000, 4.000000
101.000000, 0.000000, 4462.051270, 4494.871582, 3902.051270, 4116.410156, 4037.948730, 450.000000, 8136.000000, 8317.000000, 0.000000, 0.000000, 0.000000, 1.000000, 623.399979, 1557649764.584362, 4.000000, 4.000000, 4.000000, 0.000000, 4.000000
102.000000, 0.000000, 4446.153809, 4484.615234, 3900.512695, 4108.205078, 4031.794678, 450.000000, 8139.000000, 8326.000000, 0.000000, 0.000000, 0.000000, 1.000000, 631.200027, 1557649764.592162, 4.000000, 4.000000, 4.000000, 0.000000, 4.000000
103.000000, 0.000000, 4440.000000, 4485.641113, 3911.281982, 4122.563965, 4040.512695, 16185.000000, 8139.000000, 8335.000000, 0.000000, 0.000000, 0.000000, 1.000000, 639.000015, 1557649764.599962, 4.000000, 4.000000, 4.000000, 0.000000, 4.000000
104.000000, 0.000000, 4456.922852, 4502.563965, 3913.845947, 4133.846191, 4046.666504, 450.000000, 8143.000000, 8330.000000, 0.000000, 0.000000, 0.000000, 1.000000, 647.000015, 1557649764.607962, 4.000000, 4.000000, 4.000000, 0.000000, 4.000000
105.000000, 0.000000, 4466.666504, 4491.281738, 3902.051270, 4120.000000, 4037.435791, 450.000000, 8150.000000, 8344.000000, 0.000000, 0.000000, 0.000000, 1.000000, 654.899979, 1557649764.615862, 4.000000, 4.000000, 4.000000, 0.000000, 4.000000
106.000000, 0.000000, 4455.384277, 4463.076660, 3895.384521, 4112.820313, 4024.615234, 450.000000, 8163.000000, 8342.000000, 0.000000, 0.000000, 0.000000, 1.000000, 662.899979, 1557649764.623862, 4.000000, 4.000000, 4.000000, 0.000000, 4.000000
107.000000, 0.000000, 4453.846191, 4469.743652, 3903.589600, 4123.076660, 4028.717773, 16185.000000, 8161.000000, 8347.000000, 0.000000, 0.000000, 0.000000, 1.000000, 670.899979, 1557649764.631862, 4.000000, 4.000000, 4.000000, 0.000000, 4.000000
108.000000, 0.000000, 4469.230469, 4482.051270, 3914.871582, 4123.589844, 4037.435791, 450.000000, 8166.000000, 8347.000000, 0.000000, 0.000000, 0.000000, 1.000000, 678.599991, 1557649764.639562, 4.000000, 4.000000, 4.000000, 0.000000, 4.000000
109.000000, 0.000000, 4465.641113, 4469.230469, 3910.769043, 4117.948730, 4030.769043, 450.000000, 8173.000000, 8350.000000, 0.000000, 0.000000, 0.000000, 1.000000, 686.399979, 1557649764.647362, 4.000000, 4.000000, 4.000000, 0.000000, 4.000000
110.000000, 0.000000, 4435.897461, 4458.974121, 3900.512695, 4113.846191, 4017.435791, 450.000000, 8175.000000, 8346.000000, 0.000000, 0.000000, 0.000000, 1.000000, 694.200027, 1557649764.655162, 4.000000, 4.000000, 4.000000, 0.000000, 4.000000
111.000000, 0.000000, 4423.076660, 4458.461426, 3893.333252, 4103.589844, 4006.153809, 16185.000000, 8177.000000, 8349.000000, 0.000000, 0.000000, 0.000000, 1.000000, 702.000015, 1557649764.662962, 4.000000, 4.000000, 4.000000, 0.000000, 4.000000
112.000000, 0.000000, 4440.000000, 4467.179199, 3893.333252, 4104.615234, 4010.256348, 450.000000, 8176.000000, 8357.000000, 0.000000, 0.000000, 0.000000, 1.000000, 709.899979, 1557649764.670862, 4.000000, 4.000000, 4.000000, 0.000000, 4.000000
113.000000, 0.000000, 4447.692383, 4476.922852, 3897.948730, 4118.461426, 4027.179443, 450.000000, 8185.000000, 8355.000000, 0.000000, 0.000000, 0.000000, 1.000000, 717.899979, 1557649764.678862, 4.000000, 4.000000, 4.000000, 0.000000, 4.000000
114.000000, 0.000000, 4440.000000, 4468.717773, 3890.256348, 4117.436035, 4024.102539, 450.000000, 8181.000000, 8344.000000, 0.000000, 0.000000, 0.000000, 1.000000, 725.899979, 1557649764.686862, 4.000000, 4.000000, 4.000000, 0.000000, 4.000000
115.000000, 0.000000, 4441.538574, 4454.871582, 3881.538330, 4109.743652, 4003.076904, 16185.000000, 8183.000000, 8334.000000, 0.000000, 0.000000, 0.000000, 1.000000, 733.800003, 1557649764.694762, 4.000000, 4.000000, 4.000000, 0.000000, 4.000000
116.000000, 0.000000, 4444.615234, 4451.794922, 3890.256348, 4111.281738, 4002.051270, 450.000000, 8182.000000, 8340.000000, 0.000000, 0.000000, 0.000000, 1.000000, 741.599991, 1557649764.702562, 4.000000, 4.000000, 4.000000, 0.000000, 4.000000
117.000000, 0.000000, 4440.000000, 4445.641113, 3903.076904, 4118.461426, 4015.897217, 450.000000, 8181.000000, 8333.000000, 0.000000, 0.000000, 0.000000, 1.000000, 749.399979, 1557649764.710362, 4.000000, 4.000000, 4.000000, 0.000000, 4.000000
118.000000, 0.000000, 4447.179199, 4438.461426, 3904.615234, 4129.230469, 4016.923096, 450.000000, 8191.000000, 8326.000000, 0.000000, 0.000000, 0.000000, 1.000000, 757.200027, 1557649764.718162, 4.000000, 4.000000, 4.000000, 0.000000, 4.000000
119.000000, 0.000000, 4462.051270, 4446.153809, 3904.102539, 4132.820313, 4010.256348, 16185.000000, 8187.000000, 8331.000000, 0.000000, 0.000000, 0.000000, 1.000000, 765.000015, 1557649764.725962, 4.000000, 4.000000, 4.000000, 0.000000, 4.000000
120.000000, 0.000000, 4451.794922, 4438.461426, 3906.666504, 4122.563965, 4006.666504, 450.000000, 8191.000000, 8322.000000, 0.000000, 0.000000, 0.000000, 1.000000, 773.000015, 1557649764.733962, 4.000000, 4.000000, 4.000000, 0.000000, 4.000000
121.000000, 0.000000, 4440.000000, 4418.461426, 3906.666504, 4113.333008, 4015.897217, 450.000000, 8187.000000, 8324.000000, 0.000000, 0.000000, 0.000000, 1.000000, 780.899979, 1557649764.741862, 4.000000, 4.000000, 4.000000, 0.000000, 4.000000
122.000000, 0.000000, 4468.717773, 4429.743652, 3913.333252, 4118.974121, 4030.769043, 450.000000, 8189.000000, 8319.000000, 0.000000, 0.000000, 0.000000, 1.000000, 788.900003, 1557649764.749862, 4.000000, 4.000000, 4.000000, 0.000000, 4.000000
123.000000, 0.000000, 4483.076660, 4441.025391, 3916.410156, 4121.025391, 4030.769043, 16185.000000, 8191.000000, 8308.000000, 0.000000, 0.000000, 0.000000, 1.000000, 796.900003, 1557649764.757862, 4.000000, 4.000000, 4.000000, 0.000000, 4.000000
124.000000, 0.000000, 4451.281738, 4418.461426, 3905.640869, 4111.794922, 4018.461426, 450.000000, 8194.000000, 8309.000000, 0.000000, 0.000000, 0.000000, 1.000000, 804.700003, 1557649764.765662, 4.000000, 4.000000, 4.000000, 0.000000, 4.000000
125.000000, 0.000000, 4437.948730, 4404.615234, 3898.974365, 4109.230469, 4013.845947, 450.000000, 8197.000000, 8318.000000, 0.000000, 0.000000, 0.000000, 1.000000, 812.500004, 1557649764.773462, 4.000000, 4.000000, 4.000000, 0.000000, 4.000000
126.000000, 0.000000, 4449.230469, 4409.230469, 3895.897461, 4107.692383, 4004.615234, 450.000000, 8201.000000, 8315.000000, 0.000000, 0.000000, 0.000000, 1.000000, 820.300003, 1557649764.781262, 4.000000, 4.000000, 4.000000, 0.000000, 4.000000
127.000000, 0.000000, 4442.563965, 4399.487305, 3894.358887, 4103.076660, 3989.230713, 16185.000000, 8202.000000, 8306.000000, 0.000000, 0.000000, 0.000000, 1.000000, 828.100002, 1557649764.789062, 4.000000, 4.000000, 4.000000, 0.000000, 4.000000
128.000000, 0.000000, 4438.974121, 4394.358887, 3904.615234, 4110.256348, 3997.948730, 500.000000, 8200.000000, 8305.000000, 0.000000, 0.000000, 0.000000, 1.000000, 836.000004, 1557649764.796962, 4.000000, 4.000000, 4.000000, 0.000000, 4.000000
0.000000, 0.000000, 4446.666504, 4404.615234, 3911.794678, 4120.000000, 4013.333252, 500.000000, 8190.000000, 8319.000000, 0.000000, 0.000000, 0.000000, 1.000000, 843.900002, 1557649764.804862, 4.000000, 4.000000, 4.000000, 0.000000, 4.000000
1.000000, 0.000000, 4443.076660, 4407.179199, 3910.769043, 4117.948730, 4004.615234, 500.000000, 8192.000000, 8322.000000, 0.000000, 0.000000, 0.000000, 1.000000, 851.900002, 1557649764.812862, 4.000000, 4.000000, 4.000000, 0.000000, 4.000000
2.000000, 0.000000, 4438.461426, 4407.692383, 3921.025635, 4109.230469, 3993.845947, 16189.000000, 8194.000000, 8317.000000, 0.000000, 0.000000, 0.000000, 1.000000, 859.900002, 1557649764.820862, 4.000000, 4.000000, 4.000000, 0.000000, 4.000000
3.000000, 0.000000, 4446.153809, 4412.307617, 3925.640869, 4109.230469, 4007.179443, 500.000000, 8193.000000, 8326.000000, 0.000000, 0.000000, 0.000000, 1.000000, 867.900002, 1557649764.828862, 4.000000, 4.000000, 4.000000, 0.000000, 4.000000
4.000000, 0.000000, 4460.000000, 4414.871582, 3916.410156, 4116.410156, 4024.615234, 16144.000000, 8190.000000, 8331.000000, 0.000000, 0.000000, 0.000000, 1.000000, 875.700005, 1557649764.836662, 4.000000, 4.000000, 4.000000, 0.000000, 4.000000
5.000000, 0.000000, 4480.000000, 4414.871582, 3916.410156, 4117.436035, 4030.256348, 500.000000, 8186.000000, 8337.000000, 0.000000, 0.000000, 0.000000, 1.000000, 883.500000, 1557649764.844462, 4.000000, 4.000000, 4.000000, 0.000000, 4.000000
6.000000, 0.000000, 4494.358887, 4413.333008, 3927.692139, 4124.102539, 4037.948730, 16152.000000, 8176.000000, 8351.000000, 0.000000, 0.000000, 0.000000, 1.000000, 891.200005, 1557649764.852162, 4.000000, 4.000000, 4.000000, 0.000000, 4.000000
7.000000, 0.000000, 4502.051270, 4415.384277, 3935.897461, 4134.358887, 4056.410156, 500.000000, 8178.000000, 8346.000000, 0.000000, 0.000000, 0.000000, 1.000000, 899.000000, 1557649764.859962, 4.000000, 4.000000, 4.000000, 0.000000, 4.000000
8.000000, 0.000000, 4510.256348, 4414.871582, 3935.384521, 4129.230469, 4066.666504, 500.000000, 8171.000000, 8352.000000, 0.000000, 0.000000, 0.000000, 1.000000, 906.900002, 1557649764.867862, 4.000000, 4.000000, 4.000000, 0.000000, 4.000000
9.000000, 0.000000, 4509.743652, 4405.641113, 3922.563965, 4113.846191, 4054.871582, 13.000000, 8168.000000, 8364.000000, 0.000000, 0.000000, 0.000000, 1.000000, 914.900009, 1557649764.875862, 4.000000, 4.000000, 4.000000, 0.000000, 4.000000
10.000000, 0.000000, 4508.205078, 4406.666504, 3917.948730, 4112.820313, 4050.256348, 500.000000, 8156.000000, 8374.000000, 0.000000, 0.000000, 0.000000, 1.000000, 922.900009, 1557649764.883862, 4.000000, 4.000000, 4.000000, 0.000000, 4.000000
11.000000, 0.000000, 4513.846191, 4417.435547, 3926.666504, 4130.256348, 4064.102539, 16186.000000, 8159.000000, 8365.000000, 0.000000, 0.000000, 0.000000, 1.000000, 930.900009, 1557649764.891862, 4.000000, 4.000000, 4.000000, 0.000000, 4.000000
12.000000, 0.000000, 4496.922852, 4402.051270, 3917.948730, 4131.281738, 4056.923096, 500.000000, 8156.000000, 8367.000000, 0.000000, 0.000000, 0.000000, 1.000000, 938.699997, 1557649764.899662, 4.000000, 4.000000, 4.000000, 0.000000, 4.000000
13.000000, 0.000000, 4463.076660, 4367.179199, 3897.435791, 4111.281738, 4023.589600, 500.000000, 8148.000000, 8380.000000, 0.000000, 0.000000, 0.000000, 1.000000, 946.400009, 1557649764.907362, 4.000000, 4.000000, 4.000000, 0.000000, 4.000000
14.000000, 0.000000, 4460.000000, 4359.487305, 3904.102539, 4109.230469, 4012.820313, 450.000000, 8141.000000, 8370.000000, 0.000000, 0.000000, 0.000000, 1.000000, 954.199997, 1557649764.915162, 4.000000, 4.000000, 4.000000, 0.000000, 4.000000
15.000000, 0.000000, 4481.538574, 4384.615234, 3923.076904, 4121.025391, 4032.307617, 16186.000000, 8136.000000, 8363.000000, 0.000000, 0.000000, 0.000000, 1.000000, 962.000000, 1557649764.922962, 4.000000, 4.000000, 4.000000, 0.000000, 4.000000
16.000000, 0.000000, 4474.871582, 4393.333008, 3920.512695, 4114.871582, 4033.845947, 0.000000, 8128.000000, 8363.000000, 0.000000, 0.000000, 0.000000, 1.000000, 970.000000, 1557649764.930962, 4.000000, 4.000000, 4.000000, 0.000000, 4.000000
17.000000, 0.000000, 4445.127930, 4372.307617, 3910.256348, 4106.153809, 4010.769043, 0.000000, 8124.000000, 8361.000000, 0.000000, 0.000000, 0.000000, 1.000000, 977.900009, 1557649764.938862, 4.000000, 4.000000, 4.000000, 0.000000, 4.000000
18.000000, 0.000000, 4430.256348, 4370.256348, 3916.923096, 4111.794922, 4002.563965, 0.000000, 8123.000000, 8357.000000, 0.000000, 0.000000, 0.000000, 1.000000, 985.900009, 1557649764.946862, 4.000000, 4.000000, 4.000000, 0.000000, 4.000000
19.000000, 0.000000, 4443.076660, 4410.769043, 3931.281982, 4125.127930, 4021.025635, 0.000000, 8119.000000, 8355.000000, 0.000000, 0.000000, 0.000000, 1.000000, 993.800003, 1557649764.954762, 4.000000, 4.000000, 4.000000, 0.000000, 4.000000
20.000000, 0.000000, 4464.615234, 4451.281738, 3940.000000, 4136.922852, 4038.974365, 0.000000, 8118.000000, 8353.000000, 0.000000, 0.000000, 0.000000, 2.000000, 1.800003, 1557649764.962762, 4.000000, 4.000000, 4.000000, 0.000000, 4.000000
21.000000, 0.000000, 4453.333008, 4444.102539, 3930.256348, 4131.794922, 4022.051270, 0.000000, 8118.000000, 8357.000000, 0.000000, 0.000000, 0.000000, 2.000000, 9.600006, 1557649764.970562, 4.000000, 4.000000, 4.000000, 0.000000, 4.000000
22.000000, 0.000000, 4425.641113, 4409.230469, 3908.205078, 4118.461426, 3989.230713, 0.000000, 8111.000000, 8366.000000, 0.000000, 0.000000, 0.000000, 2.000000, 17.400009, 1557649764.978362, 4.000000, 4.000000, 4.000000, 0.000000, 4.000000
23.000000, 0.000000, 4424.102539, 4393.846191, 3901.538330, 4121.025391, 3980.000000, 0.000000, 8115.000000, 8369.000000, 0.000000, 0.000000, 0.000000, 2.000000, 25.199997, 1557649764.986162, 4.000000, 4.000000, 4.000000, 0.000000, 4.000000
24.000000, 0.000000, 4430.256348, 4396.922852, 3920.512695, 4132.820313, 3991.281982, 0.000000, 8115.000000, 8362.000000, 0.000000, 0.000000, 0.000000, 2.000000, 33.100006, 1557649764.994062, 4.000000, 4.000000, 4.000000, 0.000000, 4.000000
25.000000, 0.000000, 4431.281738, 4405.127930, 3932.820313, 4129.743652, 4000.512695, 0.000000, 8127.000000, 8359.000000, 0.000000, 0.000000, 0.000000, 2.000000, 40.900009, 1557649765.001862, 4.000000, 4.000000, 4.000000, 0.000000, 4.000000
26.000000, 0.000000, 4440.512695, 4409.743652, 3918.461426, 4122.051270, 3990.769043, 0.000000, 8127.000000, 8378.000000, 0.000000, 0.000000, 0.000000, 2.000000, 48.800003, 1557649765.009762, 4.000000, 4.000000, 4.000000, 0.000000, 4.000000
27.000000, 0.000000, 4437.948730, 4401.025391, 3898.461426, 4118.974121, 3970.256348, 0.000000, 8136.000000, 8383.000000, 0.000000, 0.000000, 0.000000, 2.000000, 56.800003, 1557649765.017762, 4.000000, 4.000000, 4.000000, 0.000000, 4.000000
28.000000, 0.000000, 4420.512695, 4393.333008, 3905.128174, 4113.846191, 3968.717773, 0.000000, 8138.000000, 8375.000000, 0.000000, 0.000000, 0.000000, 2.000000, 64.800003, 1557649765.025762, 4.000000, 4.000000, 4.000000, 0.000000, 4.000000
29.000000, 0.000000, 4416.922852, 4395.897461, 3925.640869, 4115.384277, 3976.923096, 0.000000, 8150.000000, 8379.000000, 0.000000, 0.000000, 0.000000, 2.000000, 72.599991, 1557649765.033562, 4.000000, 4.000000, 4.000000, 0.000000, 4.000000
30.000000, 0.000000, 4415.384277, 4386.153809, 3917.948730, 4119.487305, 3963.589600, 0.000000, 8149.000000, 8396.000000, 0.000000, 0.000000, 0.000000, 2.000000, 80.400009, 1557649765.041362, 4.000000, 4.000000, 4.000000, 0.000000, 4.000000
31.000000, 0.000000, 4405.641113, 4369.743652, 3892.820313, 4123.076660, 3952.307617, 0.000000, 8151.000000, 8391.000000, 0.000000, 0.000000, 0.000000, 2.000000, 88.199997, 1557649765.049162, 4.000000, 4.000000, 4.000000, 0.000000, 4.000000
32.000000, 0.000000, 4405.127930, 4366.666504, 3889.743408, 4126.666504, 3960.000000, 0.000000, 8146.000000, 8392.000000, 0.000000, 0.000000, 0.000000, 2.000000, 96.000015, 1557649765.056962, 4.000000, 4.000000, 4.000000, 0.000000, 4.000000
33.000000, 0.000000, 4397.948730, 4359.487305, 3894.871582, 4114.358887, 3956.923096, 0.000000, 8145.000000, 8396.000000, 0.000000, 0.000000, 0.000000, 2.000000, 103.900009, 1557649765.064862, 4.000000, 4.000000, 4.000000, 0.000000, 4.000000
34.000000, 0.000000, 4378.461426, 4343.589844, 3892.307617, 4096.410156, 3952.820313, 0.000000, 8153.000000, 8395.000000, 0.000000, 0.000000, 0.000000, 2.000000, 111.900009, 1557649765.072862, 4.000000, 4.000000, 4.000000, 0.000000, 4.000000
35.000000, 0.000000, 4383.076660, 4349.743652, 3898.974365, 4100.000000, 3968.205078, 0.000000, 8153.000000, 8400.000000, 0.000000, 0.000000, 0.000000, 2.000000, 119.900009, 1557649765.080862, 4.000000, 4.000000, 4.000000, 0.000000, 4.000000
36.000000, 0.000000, 4405.641113, 4362.563965, 3904.102539, 4115.384277, 3975.384521, 0.000000, 8147.000000, 8405.000000, 0.000000, 0.000000, 0.000000, 2.000000, 127.900009, 1557649765.088862, 4.000000, 4.000000, 4.000000, 0.000000, 4.000000
37.000000, 0.000000, 4420.000000, 4369.230469, 3909.743408, 4122.563965, 3978.461426, 0.000000, 8152.000000, 8393.000000, 0.000000, 0.000000, 0.000000, 2.000000, 135.699997, 1557649765.096662, 4.000000, 4.000000, 4.000000, 0.000000, 4.000000
38.000000, 0.000000, 4437.435547, 4378.461426, 3932.307617, 4123.589844, 4000.512695, 0.000000, 8150.000000, 8398.000000, 0.000000, 0.000000, 0.000000, 2.000000, 143.500015, 1557649765.104462, 4.000000, 4.000000, 4.000000, 0.000000, 4.000000
39.000000, 0.000000, 4436.410156, 4377.435547, 3948.205078, 4126.666504, 3998.974365, 0.000000, 8137.000000, 8409.000000, 0.000000, 0.000000, 0.000000, 2.000000, 151.300003, 1557649765.112262, 4.000000, 4.000000, 4.000000, 0.000000, 4.000000
40.000000, 0.000000, 4404.615234, 4361.025391, 3944.615234, 4122.051270, 3973.845947, 0.000000, 8134.000000, 8404.000000, 0.000000, 0.000000, 0.000000, 2.000000, 159.000015, 1557649765.119962, 4.000000, 4.000000, 4.000000, 0.000000, 4.000000
41.000000, 0.000000, 4399.487305, 4346.666504, 3938.974365, 4116.922852, 3976.410156, 0.000000, 8136.000000, 8394.000000, 0.000000, 0.000000, 0.000000, 2.000000, 166.900009, 1557649765.127862, 4.000000, 4.000000, 4.000000, 0.000000, 4.000000
42.000000, 0.000000, 4417.948730, 4340.512695, 3934.871582, 4123.589844, 3991.794678, 0.000000, 8132.000000, 8395.000000, 0.000000, 0.000000, 0.000000, 2.000000, 174.900009, 1557649765.135862, 4.000000, 4.000000, 4.000000, 0.000000, 4.000000
43.000000, 0.000000, 4399.487305, 4323.589844, 3923.589600, 4121.025391, 3989.230713, 0.000000, 8130.000000, 8405.000000, 0.000000, 0.000000, 0.000000, 2.000000, 182.900009, 1557649765.143862, 4.000000, 4.000000, 4.000000, 0.000000, 4.000000
44.000000, 0.000000, 4376.922852, 4303.589844, 3916.410156, 4112.307617, 3985.640869, 0.000000, 8127.000000, 8398.000000, 0.000000, 0.000000, 0.000000, 2.000000, 190.900009, 1557649765.151862, 4.000000, 4.000000, 4.000000, 0.000000, 4.000000
45.000000, 0.000000, 4397.435547, 4306.153809, 3917.948730, 4113.846191, 3985.128174, 0.000000, 8128.000000, 8393.000000, 0.000000, 0.000000, 0.000000, 2.000000, 198.699997, 1557649765.159662, 4.000000, 4.000000, 4.000000, 0.000000, 4.000000
46.000000, 0.000000, 4413.333008, 4313.333008, 3924.615234, 4120.512695, 3980.000000, 0.000000, 8120.000000, 8395.000000, 0.000000, 0.000000, 0.000000, 2.000000, 206.400009, 1557649765.167362, 4.000000, 4.000000, 4.000000, 0.000000, 4.000000
47.000000, 0.000000, 4405.127930, 4301.025391, 3925.128174, 4115.384277, 3973.845947, 0.000000, 8119.000000, 8387.000000, 0.000000, 0.000000, 0.000000, 2.000000, 214.199997, 1557649765.175162, 4.000000, 4.000000, 4.000000, 0.000000, 4.000000
48.000000, 0.000000, 4392.307617, 4276.922852, 3911.794678, 4101.538574, 3961.025635, 0.000000, 8114.000000, 8389.000000, 0.000000, 0.000000, 0.000000, 2.000000, 222.000015, 1557649765.182962, 4.000000, 4.000000, 4.000000, 0.000000, 4.000000
49.000000, 0.000000, 4382.051270, 4265.641113, 3906.153809, 4105.127930, 3954.871582, 0.000000, 8106.000000, 8392.000000, 0.000000, 0.000000, 0.000000, 2.000000, 230.000015, 1557649765.190962, 4.000000, 4.000000, 4.000000, 0.000000, 4.000000
50.000000, 0.000000, 4380.512695, 4263.076660, 3914.358887, 4116.410156, 3958.974365, 0.000000, 8112.000000, 8384.000000, 0.000000, 0.000000, 0.000000, 2.000000, 238.000015, 1557649765.198962, 4.000000, 4.000000, 4.000000, 0.000000, 4.000000
51.000000, 0.000000, 4379.487305, 4259.487305, 3921.538330, 4112.820313, 3954.871582, 0.000000, 8111.000000, 8387.000000, 0.000000, 0.000000, 0.000000, 2.000000, 246.000015, 1557649765.206962, 4.000000, 4.000000, 4.000000, 0.000000, 4.000000
52.000000, 0.000000, 4384.615234, 4261.538574, 3927.692139, 4112.307617, 3959.487061, 0.000000, 8108.000000, 8398.000000, 0.000000, 0.000000, 0.000000, 2.000000, 254.000015, 1557649765.214962, 4.000000, 4.000000, 4.000000, 0.000000, 4.000000
53.000000, 0.000000, 4395.384277, 4261.025391, 3926.666504, 4116.922852, 3968.717773, 0.000000, 8108.000000, 8393.000000, 0.000000, 0.000000, 0.000000, 2.000000, 261.900009, 1557649765.222862, 4.000000, 4.000000, 4.000000, 0.000000, 4.000000
54.000000, 0.000000, 4392.820313, 4249.743652, 3923.076904, 4111.794922, 3957.435791, 0.000000, 8111.000000, 8376.000000, 0.000000, 0.000000, 0.000000, 2.000000, 269.699997, 1557649765.230662, 4.000000, 4.000000, 4.000000, 0.000000, 4.000000
55.000000, 0.000000, 4383.076660, 4250.256348, 3927.692139, 4107.692383, 3953.333252, 0.000000, 8112.000000, 8377.000000, 0.000000, 0.000000, 0.000000, 2.000000, 277.500015, 1557649765.238462, 4.000000, 4.000000, 4.000000, 0.000000, 4.000000
56.000000, 0.000000, 4390.256348, 4262.563965, 3930.769043, 4114.358887, 3966.153809, 0.000000, 8110.000000, 8392.000000, 0.000000, 0.000000, 0.000000, 2.000000, 285.300003, 1557649765.246262, 4.000000, 4.000000, 4.000000, 0.000000, 4.000000
57.000000, 0.000000, 4403.076660, 4257.948730, 3927.692139, 4118.974121, 3963.589600, 0.000000, 8115.000000, 8391.000000, 0.000000, 0.000000, 0.000000, 2.000000, 293.099991, 1557649765.254062, 4.000000, 4.000000, 4.000000, 0.000000, 4.000000
58.000000, 0.000000, 4404.102539, 4245.127930, 3930.769043, 4116.922852, 3954.871582, 0.000000, 8113.000000, 8386.000000, 0.000000, 0.000000, 0.000000, 2.000000, 301.099991, 1557649765.262062, 4.000000, 4.000000, 4.000000, 0.000000, 4.000000
59.000000, 0.000000, 4401.538574, 4248.717773, 3937.435791, 4120.000000, 3959.487061, 0.000000, 8120.000000, 8381.000000, 0.000000, 0.000000, 0.000000, 2.000000, 309.000015, 1557649765.269962, 4.000000, 4.000000, 4.000000, 0.000000, 4.000000
60.000000, 0.000000, 4394.871582, 4252.820313, 3929.230713, 4117.436035, 3953.845947, 0.000000, 8121.000000, 8387.000000, 0.000000, 0.000000, 0.000000, 2.000000, 316.899979, 1557649765.277862, 4.000000, 4.000000, 4.000000, 0.000000, 4.000000
61.000000, 0.000000, 4395.897461, 4248.717773, 3921.538330, 4115.384277, 3950.769043, 0.000000, 8128.000000, 8384.000000, 0.000000, 0.000000, 0.000000, 2.000000, 324.899979, 1557649765.285862, 4.000000, 4.000000, 4.000000, 0.000000, 4.000000
62.000000, 0.000000, 4405.641113, 4248.717773, 3934.358887, 4128.205078, 3966.666504, 0.000000, 8126.000000, 8386.000000, 0.000000, 0.000000, 0.000000, 2.000000, 332.700027, 1557649765.293662, 4.000000, 4.000000, 4.000000, 0.000000, 4.000000
63.000000, 0.000000, 4404.102539, 4253.333008, 3950.256348, 4130.769043, 3972.820313, 0.000000, 8126.000000, 8392.000000, 0.000000, 0.000000, 0.000000, 2.000000, 340.500015, 1557649765.301462, 4.000000, 4.000000, 4.000000, 0.000000, 4.000000
64.000000, 0.000000, 4396.922852, 4245.641113, 3946.666504, 4124.102539, 3957.435791, 500.000000, 8127.000000, 8377.000000, 0.000000, 0.000000, 0.000000, 2.000000, 348.300003, 1557649765.309262, 4.000000, 4.000000, 4.000000, 0.000000, 4.000000
65.000000, 0.000000, 4394.358887, 4230.769043, 3932.820313, 4124.102539, 3942.563965, 500.000000, 8136.000000, 8381.000000, 0.000000, 0.000000, 0.000000, 2.000000, 356.099991, 1557649765.317062, 4.000000, 4.000000, 4.000000, 0.000000, 4.000000
66.000000, 0.000000, 4378.974121, 4223.589844, 3923.589600, 4114.358887, 3922.051270, 16194.000000, 8143.000000, 8381.000000, 0.000000, 0.000000, 0.000000, 2.000000, 363.899979, 1557649765.324862, 4.000000, 4.000000, 4.000000, 0.000000, 4.000000
67.000000, 0.000000, 4359.487305, 4221.025391, 3928.205078, 4104.615234, 3907.179443, 500.000000, 8150.000000, 8374.000000, 0.000000, 0.000000, 0.000000, 2.000000, 371.899979, 1557649765.332862, 4.000000, 4.000000, 4.000000, 0.000000, 4.000000
68.000000, 0.000000, 4370.256348, 4220.512695, 3936.923096, 4110.769043, 3917.948730, 16147.000000, 8151.000000, 8372.000000, 0.000000, 0.000000, 0.000000, 2.000000, 379.899979, 1557649765.340862, 4.000000, 4.000000, 4.000000, 0.000000, 4.000000
69.000000, 0.000000, 4386.153809, 4224.102539, 3929.230713, 4110.769043, 3923.076904, 500.000000, 8153.000000, 8379.000000, 0.000000, 0.000000, 0.000000, 2.000000, 387.899979, 1557649765.348862, 4.000000, 4.000000, 4.000000, 0.000000, 4.000000
70.000000, 0.000000, 4365.127930, 4221.025391, 3916.410156, 4097.948730, 3909.230713, 16152.000000, 8153.000000, 8378.000000, 0.000000, 0.000000, 0.000000, 2.000000, 395.899979, 1557649765.356862, 4.000000, 4.000000, 4.000000, 0.000000, 4.000000
71.000000, 0.000000, 4334.871582, 4212.307617, 3918.461426, 4090.769043, 3898.974365, 500.000000, 8162.000000, 8367.000000, 0.000000, 0.000000, 0.000000, 2.000000, 403.700027, 1557649765.364662, 4.000000, 4.000000, 4.000000, 0.000000, 4.000000
72.000000, 0.000000, 4341.538574, 4212.820313, 3926.666504, 4102.051270, 3905.128174, 500.000000, 8156.000000, 8370.000000, 0.000000, 0.000000, 0.000000, 2.000000, 411.500015, 1557649765.372462, 4.000000, 4.000000, 4.000000, 0.000000, 4.000000
73.000000, 0.000000, 4354.358887, 4212.307617, 3927.179443, 4109.230469, 3911.281982, 15.000000, 8158.000000, 8370.000000, 0.000000, 0.000000, 0.000000, 2.000000, 419.200027, 1557649765.380162, 4.000000, 4.000000, 4.000000, 0.000000, 4.000000
74.000000, 0.000000, 4343.589844, 4198.461426, 3917.435791, 4097.948730, 3898.974365, 500.000000, 8163.000000, 8367.000000, 0.000000, 0.000000, 0.000000, 2.000000, 427.000015, 1557649765.387962, 4.000000, 4.000000, 4.000000, 0.000000, 4.000000
75.000000, 0.000000, 4342.051270, 4188.205078, 3910.256348, 4091.281982, 3885.128174, 16181.000000, 8162.000000, 8371.000000, 0.000000, 0.000000, 0.000000, 2.000000, 434.899979, 1557649765.395862, 4.000000, 4.000000, 4.000000, 0.000000, 4.000000
76.000000, 0.000000, 4344.615234, 4186.666504, 3908.717773, 4098.461426, 3888.205078, 500.000000, 8156.000000, 8360.000000, 0.000000, 0.000000, 0.000000, 2.000000, 442.899979, 1557649765.403862, 4.000000, 4.000000, 4.000000, 0.000000, 4.000000
77.000000, 0.000000, 4341.025391, 4192.307617, 3908.205078, 4111.281738, 3900.512695, 500.000000, 8162.000000, 8356.000000, 0.000000, 0.000000, 0.000000, 2.000000, 450.899979, 1557649765.411862, 4.000000, 4.000000, 4.000000, 0.000000, 4.000000
78.000000, 0.000000, 4346.666504, 4203.076660, 3902.563965, 4112.820313, 3893.845947, 450.000000, 8164.000000, 8355.000000, 0.000000, 0.000000, 0.000000, 2.000000, 458.899979, 1557649765.419862, 4.000000, 4.000000, 4.000000, 0.000000, 4.000000
79.000000, 0.000000, 4349.743652, 4200.512695, 3904.102539, 4103.076660, 3882.051270, 16181.000000, 8162.000000, 8369.000000, 0.000000, 0.000000, 0.000000, 2.000000, 466.700027, 1557649765.427662, 4.000000, 4.000000, 4.000000, 0.000000, 4.000000
80.000000, 0.000000, 4342.051270, 4186.153809, 3923.076904, 4108.205078, 3887.179443, 450.000000, 8162.000000, 8357.000000, 0.000000, 0.000000, 0.000000, 2.000000, 474.399979, 1557649765.435362, 4.000000, 4.000000, 4.000000, 0.000000, 4.000000
81.000000, 0.000000, 4341.538574, 4180.512695, 3934.871582, 4116.922852, 3896.923096, 450.000000, 8165.000000, 8355.000000, 0.000000, 0.000000, 0.000000, 2.000000, 482.200027, 1557649765.443162, 4.000000, 4.000000, 4.000000, 0.000000, 4.000000
82.000000, 0.000000, 4346.666504, 4184.615234, 3922.563965, 4107.179199, 3896.923096, 450.000000, 8169.000000, 8366.000000, 0.000000, 0.000000, 0.000000, 2.000000, 490.000015, 1557649765.450962, 4.000000, 4.000000, 4.000000, 0.000000, 4.000000
83.000000, 0.000000, 4345.127930, 4181.025391, 3911.281982, 4098.461426, 3894.358887, 16181.000000, 8165.000000, 8365.000000, 0.000000, 0.000000, 0.000000, 2.000000, 498.000015, 1557649765.458962, 4.000000, 4.000000, 4.000000, 0.000000, 4.000000
84.000000, 0.000000, 4343.589844, 4173.333008, 3911.281982, 4102.051270, 3897.435791, 450.000000, 8166.000000, 8344.000000, 0.000000, 0.000000, 0.000000, 2.000000, 506.000015, 1557649765.466962, 4.000000, 4.000000, 4.000000, 0.000000, 4.000000
85.000000, 0.000000, 4344.615234, 4176.410156, 3908.205078, 4105.127930, 3893.333252, 450.000000, 8169.000000, 8349.000000, 0.000000, 0.000000, 0.000000, 2.000000, 514.000015, 1557649765.474962, 4.000000, 4.000000, 4.000000, 0.000000, 4.000000
86.000000, 0.000000, 4349.230469, 4184.615234, 3912.307617, 4107.692383, 3891.794678, 450.000000, 8166.000000, 8354.000000, 0.000000, 0.000000, 0.000000, 2.000000, 521.899979, 1557649765.482862, 4.000000, 4.000000, 4.000000, 0.000000, 4.000000
87.000000, 0.000000, 4346.153809, 4183.076660, 3926.666504, 4114.358887, 3897.948730, 16181.000000, 8162.000000, 8350.000000, 0.000000, 0.000000, 0.000000, 2.000000, 529.700027, 1557649765.490662, 4.000000, 4.000000, 4.000000, 0.000000, 4.000000
88.000000, 0.000000, 4332.307617, 4170.769043, 3923.589600, 4109.743652, 3893.333252, 450.000000, 8160.000000, 8351.000000, 0.000000, 0.000000, 0.000000, 2.000000, 537.500015, 1557649765.498462, 4.000000, 4.000000, 4.000000, 0.000000, 4.000000
89.000000, 0.000000, 4329.230469, 4163.076660, 3908.205078, 4101.025391, 3887.692139, 450.000000, 8155.000000, 8348.000000, 0.000000, 0.000000, 0.000000, 2.000000, 545.300003, 1557649765.506262, 4.000000, 4.000000, 4.000000, 0.000000, 4.000000
90.000000, 0.000000, 4337.948730, 4165.641113, 3906.153809, 4107.179199, 3890.769043, 450.000000, 8160.000000, 8339.000000, 0.000000, 0.000000, 0.000000, 2.000000, 553.099991, 1557649765.514062, 4.000000, 4.000000, 4.000000, 0.000000, 4.000000
91.000000, 0.000000, 4347.179199, 4168.205078, 3917.435791, 4115.897461, 3894.358887, 16181.000000, 8159.000000, 8337.000000, 0.000000, 0.000000, 0.000000, 2.000000, 561.099991, 1557649765.522062, 4.000000, 4.000000, 4.000000, 0.000000, 4.000000
92.000000, 0.000000, 4354.358887, 4167.179199, 3923.589600, 4115.384277, 3898.461426, 450.000000, 8154.000000, 8344.000000, 0.000000, 0.000000, 0.000000, 2.000000, 569.099991, 1557649765.530062, 4.000000, 4.000000, 4.000000, 0.000000, 4.000000
93.000000, 0.000000, 4356.410156, 4173.846191, 3928.205078, 4110.769043, 3907.179443, 450.000000, 8151.000000, 8346.000000, 0.000000, 0.000000, 0.000000, 2.000000, 577.000015, 1557649765.537962, 4.000000, 4.000000, 4.000000, 0.000000, 4.000000
94.000000, 0.000000, 4360.512695, 4185.127930, 3936.410156, 4116.410156, 3915.384521, 450.000000, 8153.000000, 8334.000000, 0.000000, 0.000000, 0.000000, 2.000000, 585.000015, 1557649765.545962, 4.000000, 4.000000, 4.000000, 0.000000, 4.000000
95.000000, 0.000000, 4367.692383, 4186.666504, 3933.845947, 4128.717773, 3921.025635, 16181.000000, 8148.000000, 8346.000000, 0.000000, 0.000000, 0.000000, 2.000000, 592.800003, 1557649765.553762, 4.000000, 4.000000, 4.000000, 0.000000, 4.000000
96.000000, 0.000000, 4368.717773, 4185.641113, 3928.717773, 4125.641113, 3926.666504, 450.000000, 8147.000000, 8341.000000, 0.000000, 0.000000, 0.000000, 2.000000, 600.599991, 1557649765.561562, 4.000000, 4.000000, 4.000000, 0.000000, 4.000000
97.000000, 0.000000, 4366.153809, 4185.127930, 3926.666504, 4115.384277, 3920.000000, 450.000000, 8148.000000, 8332.000000, 0.000000, 0.000000, 0.000000, 2.000000, 608.399979, 1557649765.569362, 4.000000, 4.000000, 4.000000, 0.000000, 4.000000
98.000000, 0.000000, 4365.641113, 4175.384277, 3913.333252, 4114.358887, 3899.487061, 450.000000, 8153.000000, 8340.000000, 0.000000, 0.000000, 0.000000, 2.000000, 616.200027, 1557649765.577162, 4.000000, 4.000000, 4.000000, 0.000000, 4.000000
99.000000, 0.000000, 4361.538574, 4176.922852, 3906.153809, 4111.794922, 3889.743408, 16181.000000, 8151.000000, 8340.000000, 0.000000, 0.000000, 0.000000, 2.000000, 624.099991, 1557649765.585062, 4.000000, 4.000000, 4.000000, 0.000000, 4.000000
100.000000, 0.000000, 4360.000000, 4191.794922, 3925.128174, 4106.666504, 3901.538330, 450.000000, 8145.000000, 8350.000000, 0.000000, 0.000000, 0.000000, 2.000000, 632.000015, 1557649765.592962, 4.000000, 4.000000, 4.000000, 0.000000, 4.000000
101.000000, 0.000000, 4373.333008, 4192.820313, 3941.025635, 4110.769043, 3913.333252, 450.000000, 8140.000000, 8351.000000, 0.000000, 0.000000, 0.000000, 2.000000, 640.000015, 1557649765.600962, 4.000000, 4.000000, 4.000000, 0.000000, 4.000000
102.000000, 0.000000, 4391.281738, 4194.871582, 3933.845947, 4117.948730, 3911.281982, 450.000000, 8137.000000, 8356.000000, 0.000000, 0.000000, 0.000000, 2.000000, 648.000015, 1557649765.608962, 4.000000, 4.000000, 4.000000, 0.000000, 4.000000
103.000000, 0.000000, 4384.615234, 4202.051270, 3931.794678, 4116.922852, 3909.743408, 16181.000000, 8139.000000, 8349.000000, 0.000000, 0.000000, 0.000000, 2.000000, 656.000015, 1557649765.616962, 4.000000, 4.000000, 4.000000, 0.000000, 4.000000
104.000000, 0.000000, 4359.487305, 4191.281738, 3934.871582, 4108.717773, 3912.307617, 450.000000, 8133.000000, 8357.000000, 0.000000, 0.000000, 0.000000, 2.000000, 664.000015, 1557649765.624962, 4.000000, 4.000000, 4.000000, 0.000000, 4.000000
105.000000, 0.000000, 4354.358887, 4177.948730, 3935.384521, 4115.384277, 3911.281982, 450.000000, 8129.000000, 8366.000000, 0.000000, 0.000000, 0.000000, 2.000000, 671.800003, 1557649765.632762, 4.000000, 4.000000, 4.000000, 0.000000, 4.000000
106.000000, 0.000000, 4361.538574, 4184.615234, 3932.820313, 4119.487305, 3900.000000, 450.000000, 8134.000000, 8365.000000, 0.000000, 0.000000, 0.000000, 2.000000, 679.500015, 1557649765.640462, 4.000000, 4.000000, 4.000000, 0.000000, 4.000000
107.000000, 0.000000, 4348.717773, 4186.666504, 3921.025635, 4104.615234, 3874.871582, 16181.000000, 8131.000000, 8358.000000, 0.000000, 0.000000, 0.000000, 2.000000, 687.500015, 1557649765.648462, 4.000000, 4.000000, 4.000000, 0.000000, 4.000000
108.000000, 0.000000, 4330.769043, 4169.743652, 3910.769043, 4094.871582, 3862.051270, 450.000000, 8125.000000, 8357.000000, 0.000000, 0.000000, 0.000000, 2.000000, 695.300003, 1557649765.656262, 4.000000, 4.000000, 4.000000, 0.000000, 4.000000
109.000000, 0.000000, 4337.436035, 4160.512695, 3915.897461, 4101.538574, 3872.307617, 450.000000, 8131.000000, 8371.000000, 0.000000, 0.000000, 0.000000, 2.000000, 703.099991, 1557649765.664062, 4.000000, 4.000000, 4.000000, 0.000000, 4.000000
110.000000, 0.000000, 4347.692383, 4162.051270, 3928.717773, 4112.820313, 3878.974365, 450.000000, 8131.000000, 8357.000000, 0.000000, 0.000000, 0.000000, 2.000000, 711.000015, 1557649765.671962, 4.000000, 4.000000, 4.000000, 0.000000, 4.000000
111.000000, 0.000000, 4361.538574, 4169.743652, 3929.230713, 4117.436035, 3884.102539, 16181.000000, 8138.000000, 8354.000000, 0.000000, 0.000000, 0.000000, 2.000000, 719.000015, 1557649765.679962, 4.000000, 4.000000, 4.000000, 0.000000, 4.000000
112.000000, 0.000000, 4387.179199, 4179.487305, 3923.589600, 4121.538574, 3902.563965, 450.000000, 8144.000000, 8364.000000, 0.000000, 0.000000, 0.000000, 2.000000, 726.800003, 1557649765.687762, 4.000000, 4.000000, 4.000000, 0.000000, 4.000000
113.000000, 0.000000, 4405.127930, 4181.025391, 3925.640869, 4130.769043, 3916.410156, 450.000000, 8142.000000, 8360.000000, 0.000000, 0.000000, 0.000000, 2.000000, 734.500015, 1557649765.695462, 4.000000, 4.000000, 4.000000, 0.000000, 4.000000
114.000000, 0.000000, 4405.641113, 4177.436035, 3933.333252, 4130.769043, 3916.410156, 450.000000, 8143.000000, 8356.000000, 0.000000, 0.000000, 0.000000, 2.000000, 742.300003, 1557649765.703262, 4.000000, 4.000000, 4.000000, 0.000000, 4.000000
115.000000, 0.000000, 4406.666504, 4182.563965, 3940.512695, 4121.538574, 3916.923096, 16181.000000, 8146.000000, 8361.000000, 0.000000, 0.000000, 0.000000, 2.000000, 750.099991, 1557649765.711062, 4.000000, 4.000000, 4.000000, 0.000000, 4.000000
116.000000, 0.000000, 4409.230469, 4187.692383, 3933.333252, 4108.717773, 3916.923096, 450.000000, 8149.000000, 8352.000000, 0.000000, 0.000000, 0.000000, 2.000000, 758.000015, 1557649765.718962, 4.000000, 4.000000, 4.000000, 0.000000, 4.000000
117.000000, 0.000000, 4394.358887, 4176.922852, 3921.025635, 4104.102539, 3911.281982, 450.000000, 8146.000000, 8352.000000, 0.000000, 0.000000, 0.000000, 2.000000, 766.000015, 1557649765.726962, 4.000000, 4.000000, 4.000000, 0.000000, 4.000000
118.000000, 0.000000, 4381.538574, 4177.436035, 3926.666504, 4114.358887, 3911.281982, 450.000000, 8148.000000, 8356.000000, 0.000000, 0.000000, 0.000000, 2.000000, 774.000015, 1557649765.734962, 4.000000, 4.000000, 4.000000, 0.000000, 4.000000
119.000000, 0.000000, 4383.589844, 4201.025391, 3936.923096, 4118.461426, 3910.769043, 16181.000000, 8155.000000, 8352.000000, 0.000000, 0.000000, 0.000000, 2.000000, 782.000015, 1557649765.742962, 4.000000, 4.000000, 4.000000, 0.000000, 4.000000
120.000000, 0.000000, 4375.384277, 4194.358887, 3927.179443, 4113.333008, 3892.820313, 450.000000, 8154.000000, 8341.000000, 0.000000, 0.000000, 0.000000, 2.000000, 789.700003, 1557649765.750662, 4.000000, 4.000000, 4.000000, 0.000000, 4.000000
121.000000, 0.000000, 4367.692383, 4165.641113, 3916.923096, 4123.076660, 3878.461426, 450.000000, 8158.000000, 8342.000000, 0.000000, 0.000000, 0.000000, 2.000000, 797.500003, 1557649765.758462, 4.000000, 4.000000, 4.000000, 0.000000, 4.000000
122.000000, 0.000000, 4386.153809, 4167.692383, 3922.563965, 4134.871582, 3894.358887, 450.000000, 8156.000000, 8348.000000, 0.000000, 0.000000, 0.000000, 2.000000, 805.300003, 1557649765.766262, 4.000000, 4.000000, 4.000000, 0.000000, 4.000000
123.000000, 0.000000, 4407.179199, 4191.281738, 3931.281982, 4129.230469, 3915.897461, 16181.000000, 8161.000000, 8350.000000, 0.000000, 0.000000, 0.000000, 2.000000, 813.100002, 1557649765.774062, 4.000000, 4.000000, 4.000000, 0.000000, 4.000000
124.000000, 0.000000, 4403.076660, 4194.871582, 3936.923096, 4119.487305, 3917.435791, 450.000000, 8164.000000, 8340.000000, 0.000000, 0.000000, 0.000000, 2.000000, 821.100002, 1557649765.782062, 4.000000, 4.000000, 4.000000, 0.000000, 4.000000
125.000000, 0.000000, 4387.692383, 4183.589844, 3938.974365, 4113.846191, 3907.179443, 450.000000, 8156.000000, 8343.000000, 0.000000, 0.000000, 0.000000, 2.000000, 829.100002, 1557649765.790062, 4.000000, 4.000000, 4.000000, 0.000000, 4.000000
126.000000, 0.000000, 4375.897461, 4179.487305, 3936.410156, 4104.615234, 3889.230713, 450.000000, 8162.000000, 8343.000000, 0.000000, 0.000000, 0.000000, 2.000000, 837.000004, 1557649765.797962, 4.000000, 4.000000, 4.000000, 0.000000, 4.000000
127.000000, 0.000000, 4381.025391, 4190.256348, 3936.923096, 4103.589844, 3886.666504, 16181.000000, 8161.000000, 8335.000000, 0.000000, 0.000000, 0.000000, 2.000000, 845.000004, 1557649765.805962, 4.000000, 4.000000, 4.000000, 0.000000, 4.000000
128.000000, 0.000000, 4389.743652, 4194.871582, 3945.128174, 4114.871582, 3905.640869, 500.000000, 8159.000000, 8339.000000, 0.000000, 0.000000, 0.000000, 2.000000, 852.900002, 1557649765.813862, 4.000000, 4.000000, 4.000000, 0.000000, 4.000000
0.000000, 0.000000, 4387.692383, 4184.615234, 3952.820313, 4118.974121, 3905.128174, 500.000000, 8166.000000, 8340.000000, 0.000000, 0.000000, 0.000000, 2.000000, 860.900002, 1557649765.821862, 4.000000, 4.000000, 4.000000, 0.000000, 4.000000
1.000000, 0.000000, 4390.769043, 4184.102539, 3952.820313, 4113.333008, 3888.717773, 500.000000, 8165.000000, 8334.000000, 0.000000, 0.000000, 0.000000, 2.000000, 868.700005, 1557649765.829662, 4.000000, 4.000000, 4.000000, 0.000000, 4.000000
2.000000, 0.000000, 4396.922852, 4203.589844, 3959.487061, 4110.769043, 3893.845947, 16166.000000, 8162.000000, 8341.000000, 0.000000, 0.000000, 0.000000, 2.000000, 876.500000, 1557649765.837462, 4.000000, 4.000000, 4.000000, 0.000000, 4.000000
3.000000, 0.000000, 4389.743652, 4214.871582, 3967.692139, 4111.281738, 3902.563965, 500.000000, 8163.000000, 8339.000000, 0.000000, 0.000000, 0.000000, 2.000000, 884.300003, 1557649765.845262, 4.000000, 4.000000, 4.000000, 0.000000, 4.000000
4.000000, 0.000000, 4381.538574, 4206.666504, 3956.923096, 4115.897461, 3894.358887, 16158.000000, 8168.000000, 8329.000000, 0.000000, 0.000000, 0.000000, 2.000000, 892.000000, 1557649765.852962, 4.000000, 4.000000, 4.000000, 0.000000, 4.000000
5.000000, 0.000000, 4380.000000, 4200.000000, 3946.666504, 4116.922852, 3888.717773, 500.000000, 8168.000000, 8333.000000, 0.000000, 0.000000, 0.000000, 2.000000, 899.900002, 1557649765.860862, 4.000000, 4.000000, 4.000000, 0.000000, 4.000000
6.000000, 0.000000, 4374.871582, 4204.615234, 3958.461426, 4113.333008, 3895.897461, 16152.000000, 8161.000000, 8341.000000, 0.000000, 0.000000, 0.000000, 2.000000, 907.900002, 1557649765.868862, 4.000000, 4.000000, 4.000000, 0.000000, 4.000000
7.000000, 0.000000, 4364.102539, 4192.820313, 3957.435791, 4112.820313, 3893.333252, 500.000000, 8169.000000, 8346.000000, 0.000000, 0.000000, 0.000000, 2.000000, 915.900009, 1557649765.876862, 4.000000, 4.000000, 4.000000, 0.000000, 4.000000
8.000000, 0.000000, 4357.948730, 4167.179199, 3935.384521, 4115.897461, 3881.538330, 500.000000, 8174.000000, 8332.000000, 0.000000, 0.000000, 0.000000, 2.000000, 923.699997, 1557649765.884662, 4.000000, 4.000000, 4.000000, 0.000000, 4.000000
9.000000, 0.000000, 4364.102539, 4177.436035, 3940.512695, 4115.384277, 3881.538330, 15.000000, 8169.000000, 8331.000000, 0.000000, 0.000000, 0.000000, 2.000000, 931.500000, 1557649765.892462, 4.000000, 4.000000, 4.000000, 0.000000, 4.000000
10.000000, 0.000000, 4377.948730, 4210.769043, 3964.102539, 4110.256348, 3890.256348, 500.000000, 8168.000000, 8349.000000, 0.000000, 0.000000, 0.000000, 2.000000, 939.300003, 1557649765.900262, 4.000000, 4.000000, 4.000000, 0.000000, 4.000000
11.000000, 0.000000, 4387.692383, 4215.384277, 3968.717773, 4120.512695, 3899.487061, 16188.000000, 8167.000000, 8337.000000, 0.000000, 0.000000, 0.000000, 2.000000, 947.000000, 1557649765.907962, 4.000000, 4.000000, 4.000000, 0.000000, 4.000000
12.000000, 0.000000, 4393.846191, 4212.307617, 3970.769043, 4134.358887, 3907.692139, 500.000000, 8165.000000, 8347.000000, 0.000000, 0.000000, 0.000000, 2.000000, 955.000000, 1557649765.915962, 4.000000, 4.000000, 4.000000, 0.000000, 4.000000
13.000000, 0.000000, 4394.871582, 4221.538574, 3973.845947, 4125.641113, 3904.615234, 500.000000, 8167.000000, 8356.000000, 0.000000, 0.000000, 0.000000, 2.000000, 962.900009, 1557649765.923862, 4.000000, 4.000000, 4.000000, 0.000000, 4.000000
14.000000, 0.000000, 4379.487305, 4216.410156, 3964.615234, 4118.461426, 3887.179443, 450.000000, 8163.000000, 8350.000000, 0.000000, 0.000000, 0.000000, 2.000000, 970.900009, 1557649765.931862, 4.000000, 4.000000, 4.000000, 0.000000, 4.000000
15.000000, 0.000000, 4360.000000, 4198.974121, 3954.871582, 4121.025391, 3877.435791, 16188.000000, 8162.000000, 8353.000000, 0.000000, 0.000000, 0.000000, 2.000000, 978.900009, 1557649765.939862, 4.000000, 4.000000, 4.000000, 0.000000, 4.000000
16.000000, 0.000000, 4359.487305, 4196.410156, 3954.358887, 4114.358887, 3875.384521, 0.000000, 8161.000000, 8352.000000, 0.000000, 0.000000, 0.000000, 2.000000, 986.900009, 1557649765.947862, 4.000000, 4.000000, 4.000000, 0.000000, 4.000000
17.000000, 0.000000, 4374.358887, 4211.794922, 3957.435791, 4118.461426, 3878.461426, 0.000000, 8162.000000, 8350.000000, 0.000000, 0.000000, 0.000000, 2.000000, 994.800003, 1557649765.955762, 4.000000, 4.000000, 4.000000, 0.000000, 4.000000
18.000000, 0.000000, 4383.589844, 4229.743652, 3966.666504, 4140.512695, 3899.487061, 0.000000, 8160.000000, 8346.000000, 0.000000, 0.000000, 0.000000, 3.000000, 2.600006, 1557649765.963562, 4.000000, 4.000000, 4.000000, 0.000000, 4.000000
19.000000, 0.000000, 4384.615234, 4232.307617, 3976.923096, 4144.102539, 3914.358887, 0.000000, 8155.000000, 8357.000000, 0.000000, 0.000000, 0.000000, 3.000000, 10.400009, 1557649765.971362, 4.000000, 4.000000, 4.000000, 0.000000, 4.000000
20.000000, 0.000000, 4387.179199, 4224.615234, 3974.358887, 4130.256348, 3909.230713, 0.000000, 8161.000000, 8363.000000, 0.000000, 0.000000, 0.000000, 3.000000, 18.199997, 1557649765.979162, 4.000000, 4.000000, 4.000000, 0.000000, 4.000000
21.000000, 0.000000, 4380.512695, 4216.922852, 3959.487061, 4127.179199, 3904.102539, 0.000000, 8160.000000, 8353.000000, 0.000000, 0.000000, 0.000000, 3.000000, 26.000000, 1557649765.986962, 4.000000, 4.000000, 4.000000, 0.000000, 4.000000
22.000000, 0.000000, 4364.102539, 4207.692383, 3948.717773, 4129.230469, 3898.974365, 0.000000, 8156.000000, 8350.000000, 0.000000, 0.000000, 0.000000, 3.000000, 34.000000, 1557649765.994962, 4.000000, 4.000000, 4.000000, 0.000000, 4.000000
23.000000, 0.000000, 4347.692383, 4196.922852, 3942.563965, 4116.410156, 3885.128174, 0.000000, 8147.000000, 8364.000000, 0.000000, 0.000000, 0.000000, 3.000000, 42.000000, 1557649766.002962, 4.000000, 4.000000, 4.000000, 0.000000, 4.000000
24.000000, 0.000000, 4339.487305, 4192.820313, 3930.769043, 4104.102539, 3870.769043, 0.000000, 8146.000000, 8366.000000, 0.000000, 0.000000, 0.000000, 3.000000, 49.900009, 1557649766.010862, 4.000000, 4.000000, 4.000000, 0.000000, 4.000000
25.000000, 0.000000, 4347.179199, 4201.538574, 3926.153809, 4105.641113, 3870.256348, 0.000000, 8147.000000, 8367.000000, 0.000000, 0.000000, 0.000000, 3.000000, 57.699997, 1557649766.018662, 4.000000, 4.000000, 4.000000, 0.000000, 4.000000
26.000000, 0.000000, 4357.948730, 4201.025391, 3937.435791, 4110.256348, 3876.410156, 0.000000, 8143.000000, 8365.000000, 0.000000, 0.000000, 0.000000, 3.000000, 65.500015, 1557649766.026462, 4.000000, 4.000000, 4.000000, 0.000000, 4.000000
27.000000, 0.000000, 4360.000000, 4185.127930, 3944.615234, 4118.974121, 3876.923096, 0.000000, 8153.000000, 8370.000000, 0.000000, 0.000000, 0.000000, 3.000000, 73.300003, 1557649766.034262, 4.000000, 4.000000, 4.000000, 0.000000, 4.000000
28.000000, 0.000000, 4360.000000, 4189.230469, 3942.051270, 4124.615234, 3878.461426, 0.000000, 8150.000000, 8375.000000, 0.000000, 0.000000, 0.000000, 3.000000, 81.099991, 1557649766.042062, 4.000000, 4.000000, 4.000000, 0.000000, 4.000000
29.000000, 0.000000, 4361.025391, 4204.102539, 3935.384521, 4126.666504, 3881.025635, 0.000000, 8143.000000, 8372.000000, 0.000000, 0.000000, 0.000000, 3.000000, 89.099991, 1557649766.050062, 4.000000, 4.000000, 4.000000, 0.000000, 4.000000
30.000000, 0.000000, 4360.512695, 4200.512695, 3930.256348, 4122.563965, 3873.333252, 0.000000, 8147.000000, 8366.000000, 0.000000, 0.000000, 0.000000, 3.000000, 97.099991, 1557649766.058062, 4.000000, 4.000000, 4.000000, 0.000000, 4.000000
31.000000, 0.000000, 4373.333008, 4209.230469, 3943.076904, 4120.000000, 3877.435791, 0.000000, 8154.000000, 8364.000000, 0.000000, 0.000000, 0.000000, 3.000000, 104.900009, 1557649766.065862, 4.000000, 4.000000, 4.000000, 0.000000, 4.000000
32.000000, 0.000000, 4388.205078, 4232.307617, 3959.487061, 4125.641113, 3895.384521, 0.000000, 8147.000000, 8375.000000, 0.000000, 0.000000, 0.000000, 3.000000, 112.900009, 1557649766.073862, 4.000000, 4.000000, 4.000000, 0.000000, 4.000000
33.000000, 0.000000, 4374.358887, 4222.051270, 3951.281982, 4127.179199, 3890.256348, 0.000000, 8145.000000, 8373.000000, 0.000000, 0.000000, 0.000000, 3.000000, 120.699997, 1557649766.081662, 4.000000, 4.000000, 4.000000, 0.000000, 4.000000
34.000000, 0.000000, 4354.871582, 4208.205078, 3941.025635, 4126.153809, 3873.333252, 0.000000, 8150.000000, 8356.000000, 0.000000, 0.000000, 0.000000, 3.000000, 128.500015, 1557649766.089462, 4.000000, 4.000000, 4.000000, 0.000000, 4.000000
35.000000, 0.000000, 4362.563965, 4214.871582, 3937.435791, 4126.666504, 3876.410156, 0.000000, 8152.000000, 8364.000000, 0.000000, 0.000000, 0.000000, 3.000000, 136.300003, 1557649766.097262, 4.000000, 4.000000, 4.000000, 0.000000, 4.000000
36.000000, 0.000000, 4358.974121, 4211.281738, 3921.538330, 4124.615234, 3869.230713, 0.000000, 8143.000000, 8368.000000, 0.000000, 0.000000, 0.000000, 3.000000, 144.099991, 1557649766.105062, 4.000000, 4.000000, 4.000000, 0.000000, 4.000000
37.000000, 0.000000, 4323.589844, 4211.281738, 3917.435791, 4125.127930, 3841.538330, 0.000000, 8144.000000, 8374.000000, 0.000000, 0.000000, 0.000000, 3.000000, 151.800003, 1557649766.112762, 4.000000, 4.000000, 4.000000, 0.000000, 4.000000
38.000000, 0.000000, 4312.307617, 4218.461426, 3931.281982, 4126.666504, 3843.589600, 0.000000, 8146.000000, 8361.000000, 0.000000, 0.000000, 0.000000, 3.000000, 159.800003, 1557649766.120762, 4.000000, 4.000000, 4.000000, 0.000000, 4.000000
39.000000, 0.000000, 4339.487305, 4210.769043, 3929.230713, 4126.666504, 3861.538330, 0.000000, 8146.000000, 8364.000000, 0.000000, 0.000000, 0.000000, 3.000000, 167.800003, 1557649766.128762, 4.000000, 4.000000, 4.000000, 0.000000, 4.000000
40.000000, 0.000000, 4348.717773, 4202.051270, 3920.000000, 4130.769043, 3849.230713, 0.000000, 8145.000000, 8365.000000, 0.000000, 0.000000, 0.000000, 3.000000, 175.800003, 1557649766.136762, 4.000000, 4.000000, 4.000000, 0.000000, 4.000000
41.000000, 0.000000, 4330.256348, 4202.051270, 3920.000000, 4126.153809, 3833.845947, 0.000000, 8142.000000, 8362.000000, 0.000000, 0.000000, 0.000000, 3.000000, 183.800003, 1557649766.144762, 4.000000, 4.000000, 4.000000, 0.000000, 4.000000
42.000000, 0.000000, 4321.538574, 4206.666504, 3928.717773, 4119.487305, 3844.615234, 0.000000, 8143.000000, 8365.000000, 0.000000, 0.000000, 0.000000, 3.000000, 191.599991, 1557649766.152562, 4.000000, 4.000000, 4.000000, 0.000000, 4.000000
43.000000, 0.000000, 4330.256348, 4211.281738, 3940.000000, 4127.179199, 3854.358887, 0.000000, 8147.000000, 8360.000000, 0.000000, 0.000000, 0.000000, 3.000000, 199.400009, 1557649766.160362, 4.000000, 4.000000, 4.000000, 0.000000, 4.000000
44.000000, 0.000000, 4327.692383, 4205.641113, 3932.820313, 4126.666504, 3843.589600, 0.000000, 8145.000000, 8357.000000, 0.000000, 0.000000, 0.000000, 3.000000, 207.099991, 1557649766.168062, 4.000000, 4.000000, 4.000000, 0.000000, 4.000000
45.000000, 0.000000, 4313.333008, 4199.487305, 3925.128174, 4117.436035, 3830.769043, 0.000000, 8141.000000, 8365.000000, 0.000000, 0.000000, 0.000000, 3.000000, 215.000015, 1557649766.175962, 4.000000, 4.000000, 4.000000, 0.000000, 4.000000
46.000000, 0.000000, 4318.461426, 4205.127930, 3933.845947, 4124.102539, 3824.102539, 0.000000, 8140.000000, 8362.000000, 0.000000, 0.000000, 0.000000, 3.000000, 223.000015, 1557649766.183962, 4.000000, 4.000000, 4.000000, 0.000000, 4.000000
47.000000, 0.000000, 4322.563965, 4200.512695, 3926.153809, 4132.307617, 3817.948730, 0.000000, 8149.000000, 8354.000000, 0.000000, 0.000000, 0.000000, 3.000000, 230.900009, 1557649766.191862, 4.000000, 4.000000, 4.000000, 0.000000, 4.000000
48.000000, 0.000000, 4300.512695, 4188.205078, 3911.281982, 4123.589844, 3812.307617, 0.000000, 8145.000000, 8355.000000, 0.000000, 0.000000, 0.000000, 3.000000, 238.900009, 1557649766.199862, 4.000000, 4.000000, 4.000000, 0.000000, 4.000000
49.000000, 0.000000, 4295.384277, 4193.333008, 3924.102539, 4127.179199, 3813.333252, 0.000000, 8138.000000, 8361.000000, 0.000000, 0.000000, 0.000000, 3.000000, 246.900009, 1557649766.207862, 4.000000, 4.000000, 4.000000, 0.000000, 4.000000
50.000000, 0.000000, 4304.615234, 4205.127930, 3932.307617, 4137.436035, 3816.923096, 0.000000, 8142.000000, 8368.000000, 0.000000, 0.000000, 0.000000, 3.000000, 254.699997, 1557649766.215662, 4.000000, 4.000000, 4.000000, 0.000000, 4.000000
51.000000, 0.000000, 4287.179199, 4204.615234, 3928.717773, 4120.512695, 3805.128174, 0.000000, 8146.000000, 8358.000000, 0.000000, 0.000000, 0.000000, 3.000000, 262.400009, 1557649766.223362, 4.000000, 4.000000, 4.000000, 0.000000, 4.000000
52.000000, 0.000000, 4271.794922, 4197.948730, 3946.153809, 4109.230469, 3785.640869, 0.000000, 8143.000000, 8357.000000, 0.000000, 0.000000, 0.000000, 3.000000, 270.199997, 1557649766.231162, 4.000000, 4.000000, 4.000000, 0.000000, 4.000000
53.000000, 0.000000, 4287.692383, 4197.948730, 3965.128174, 4118.461426, 3784.102539, 0.000000, 8147.000000, 8364.000000, 0.000000, 0.000000, 0.000000, 3.000000, 278.000015, 1557649766.238962, 4.000000, 4.000000, 4.000000, 0.000000, 4.000000
54.000000, 0.000000, 4302.563965, 4203.589844, 3970.769043, 4124.102539, 3796.923096, 0.000000, 8148.000000, 8357.000000, 0.000000, 0.000000, 0.000000, 3.000000, 285.900009, 1557649766.246862, 4.000000, 4.000000, 4.000000, 0.000000, 4.000000
55.000000, 0.000000, 4292.820313, 4204.615234, 3972.820313, 4126.666504, 3794.358887, 0.000000, 8149.000000, 8359.000000, 0.000000, 0.000000, 0.000000, 3.000000, 293.900009, 1557649766.254862, 4.000000, 4.000000, 4.000000, 0.000000, 4.000000
56.000000, 0.000000, 4274.358887, 4200.512695, 3962.051270, 4118.974121, 3776.923096, 0.000000, 8146.000000, 8354.000000, 0.000000, 0.000000, 0.000000, 3.000000, 301.899979, 1557649766.262862, 4.000000, 4.000000, 4.000000, 0.000000, 4.000000
57.000000, 0.000000, 4276.410156, 4199.487305, 3953.333252, 4110.256348, 3776.410156, 0.000000, 8153.000000, 8351.000000, 0.000000, 0.000000, 0.000000, 3.000000, 309.800003, 1557649766.270762, 4.000000, 4.000000, 4.000000, 0.000000, 4.000000
58.000000, 0.000000, 4294.358887, 4209.230469, 3966.153809, 4125.127930, 3790.256348, 0.000000, 8150.000000, 8359.000000, 0.000000, 0.000000, 0.000000, 3.000000, 317.599991, 1557649766.278562, 4.000000, 4.000000, 4.000000, 0.000000, 4.000000
59.000000, 0.000000, 4290.256348, 4215.897461, 3964.102539, 4136.410156, 3783.076904, 0.000000, 8150.000000, 8361.000000, 0.000000, 0.000000, 0.000000, 3.000000, 325.399979, 1557649766.286362, 4.000000, 4.000000, 4.000000, 0.000000, 4.000000
60.000000, 0.000000, 4272.820313, 4206.153809, 3943.076904, 4116.922852, 3758.461426, 0.000000, 8157.000000, 8345.000000, 0.000000, 0.000000, 0.000000, 3.000000, 333.200027, 1557649766.294162, 4.000000, 4.000000, 4.000000, 0.000000, 4.000000
61.000000, 0.000000, 4275.384277, 4196.410156, 3937.435791, 4103.076660, 3751.794678, 0.000000, 8156.000000, 8344.000000, 0.000000, 0.000000, 0.000000, 3.000000, 341.000015, 1557649766.301962, 4.000000, 4.000000, 4.000000, 0.000000, 4.000000
62.000000, 0.000000, 4275.897461, 4200.000000, 3937.948730, 4112.820313, 3751.794678, 0.000000, 8164.000000, 8338.000000, 0.000000, 0.000000, 0.000000, 3.000000, 349.000015, 1557649766.309962, 4.000000, 4.000000, 4.000000, 0.000000, 4.000000
63.000000, 0.000000, 4269.230469, 4204.102539, 3938.974365, 4115.384277, 3743.589600, 0.000000, 8158.000000, 8351.000000, 0.000000, 0.000000, 0.000000, 3.000000, 357.000015, 1557649766.317962, 4.000000, 4.000000, 4.000000, 0.000000, 4.000000
64.000000, 0.000000, 4272.307617, 4199.487305, 3948.205078, 4103.589844, 3737.435791, 500.000000, 8161.000000, 8344.000000, 0.000000, 0.000000, 0.000000, 3.000000, 364.899979, 1557649766.325862, 4.000000, 4.000000, 4.000000, 0.000000, 4.000000
65.000000, 0.000000, 4273.846191, 4198.974121, 3955.384521, 4104.615234, 3739.487061, 500.000000, 8153.000000, 8352.000000, 0.000000, 0.000000, 0.000000, 3.000000, 372.899979, 1557649766.333862, 4.000000, 4.000000, 4.000000, 0.000000, 4.000000
66.000000, 0.000000, 4265.641113, 4211.281738, 3947.179443, 4111.794922, 3741.538330, 16172.000000, 8157.000000, 8360.000000, 0.000000, 0.000000, 0.000000, 3.000000, 380.899979, 1557649766.341862, 4.000000, 4.000000, 4.000000, 0.000000, 4.000000
67.000000, 0.000000, 4254.871582, 4212.820313, 3930.769043, 4105.127930, 3731.794678, 500.000000, 8160.000000, 8360.000000, 0.000000, 0.000000, 0.000000, 3.000000, 388.700027, 1557649766.349662, 4.000000, 4.000000, 4.000000, 0.000000, 4.000000
68.000000, 0.000000, 4254.358887, 4195.897461, 3921.538330, 4095.897217, 3714.358887, 16157.000000, 8153.000000, 8359.000000, 0.000000, 0.000000, 0.000000, 3.000000, 396.500015, 1557649766.357462, 4.000000, 4.000000, 4.000000, 0.000000, 4.000000
69.000000, 0.000000, 4262.563965, 4190.769043, 3928.717773, 4097.948730, 3714.358887, 500.000000, 8151.000000, 8366.000000, 0.000000, 0.000000, 0.000000, 3.000000, 404.300003, 1557649766.365262, 4.000000, 4.000000, 4.000000, 0.000000, 4.000000
70.000000, 0.000000, 4265.641113, 4205.127930, 3942.563965, 4106.153809, 3732.307617, 16152.000000, 8150.000000, 8365.000000, 0.000000, 0.000000, 0.000000, 3.000000, 412.000015, 1557649766.372962, 4.000000, 4.000000, 4.000000, 0.000000, 4.000000
71.000000, 0.000000, 4260.512695, 4204.615234, 3942.563965, 4100.000000, 3724.102539, 500.000000, 8147.000000, 8359.000000, 0.000000, 0.000000, 0.000000, 3.000000, 420.000015, 1557649766.380962, 4.000000, 4.000000, 4.000000, 0.000000, 4.000000
72.000000, 0.000000, 4256.922852, 4191.281738, 3940.000000, 4090.769043, 3701.025635, 500.000000, 8141.000000, 8369.000000, 0.000000, 0.000000, 0.000000, 3.000000, 427.899979, 1557649766.388862, 4.000000, 4.000000, 4.000000, 0.000000, 4.000000
73.000000, 0.000000, 4252.820313, 4185.127930, 3944.102539, 4094.871582, 3697.948730, 12.000000, 8141.000000, 8365.000000, 0.000000, 0.000000, 0.000000, 3.000000, 435.899979, 1557649766.396862, 4.000000, 4.000000, 4.000000, 0.000000, 4.000000
74.000000, 0.000000, 4248.205078, 4179.487305, 3931.794678, 4098.461426, 3696.410156, 500.000000, 8140.000000, 8363.000000, 0.000000, 0.000000, 0.000000, 3.000000, 443.899979, 1557649766.404862, 4.000000, 4.000000, 4.000000, 0.000000, 4.000000
75.000000, 0.000000, 4250.256348, 4179.487305, 3921.025635, 4102.051270, 3690.256348, 16187.000000, 8138.000000, 8372.000000, 0.000000, 0.000000, 0.000000, 3.000000, 451.700027, 1557649766.412662, 4.000000, 4.000000, 4.000000, 0.000000, 4.000000
76.000000, 0.000000, 4249.230469, 4186.666504, 3926.666504, 4103.076660, 3692.820313, 500.000000, 8138.000000, 8372.000000, 0.000000, 0.000000, 0.000000, 3.000000, 459.500015, 1557649766.420462, 4.000000, 4.000000, 4.000000, 0.000000, 4.000000
77.000000, 0.000000, 4255.384277, 4187.179199, 3925.640869, 4096.410156, 3698.461426, 500.000000, 8136.000000, 8358.000000, 0.000000, 0.000000, 0.000000, 3.000000, 467.200027, 1557649766.428162, 4.000000, 4.000000, 4.000000, 0.000000, 4.000000
78.000000, 0.000000, 4262.563965, 4184.102539, 3918.461426, 4094.871582, 3697.948730, 450.000000, 8136.000000, 8371.000000, 0.000000, 0.000000, 0.000000, 3.000000, 475.000015, 1557649766.435962, 4.000000, 4.000000, 4.000000, 0.000000, 4.000000
79.000000, 0.000000, 4252.820313, 4188.205078, 3909.743408, 4099.487305, 3693.845947, 16187.000000, 8139.000000, 8375.000000, 0.000000, 0.000000, 0.000000, 3.000000, 483.000015, 1557649766.443962, 4.000000, 4.000000, 4.000000, 0.000000, 4.000000
80.000000, 0.000000, 4243.589844, 4189.230469, 3902.563965, 4103.589844, 3687.179443, 450.000000, 8149.000000, 8372.000000, 0.000000, 0.000000, 0.000000, 3.000000, 491.000015, 1557649766.451962, 4.000000, 4.000000, 4.000000, 0.000000, 4.000000
81.000000, 0.000000, 4245.641113, 4186.666504, 3914.871582, 4105.641113, 3691.794678, 450.000000, 8147.000000, 8367.000000, 0.000000, 0.000000, 0.000000, 3.000000, 499.000015, 1557649766.459962, 4.000000, 4.000000, 4.000000, 0.000000, 4.000000
82.000000, 0.000000, 4248.205078, 4195.897461, 3927.179443, 4105.127930, 3708.205078, 450.000000, 8149.000000, 8368.000000, 0.000000, 0.000000, 0.000000, 3.000000, 507.000015, 1557649766.467962, 4.000000, 4.000000, 4.000000, 0.000000, 4.000000
83.000000, 0.000000, 4257.436035, 4203.076660, 3913.333252, 4103.076660, 3708.717773, 16187.000000, 8151.000000, 8365.000000, 0.000000, 0.000000, 0.000000, 3.000000, 515.000015, 1557649766.475962, 4.000000, 4.000000, 4.000000, 0.000000, 4.000000
84.000000, 0.000000, 4276.922852, 4196.410156, 3902.563965, 4102.051270, 3697.435791, 450.000000, 8155.000000, 8364.000000, 0.000000, 0.000000, 0.000000, 3.000000, 522.700027, 1557649766.483662, 4.000000, 4.000000, 4.000000, 0.000000, 4.000000
85.000000, 0.000000, 4280.000000, 4200.000000, 3913.333252, 4107.179199, 3700.000000, 450.000000, 8153.000000, 8372.000000, 0.000000, 0.000000, 0.000000, 3.000000, 530.500015, 1557649766.491462, 4.000000, 4.000000, 4.000000, 0.000000, 4.000000
86.000000, 0.000000, 4270.256348, 4207.179199, 3925.128174, 4114.871582, 3711.281982, 450.000000, 8157.000000, 8374.000000, 0.000000, 0.000000, 0.000000, 3.000000, 538.300003, 1557649766.499262, 4.000000, 4.000000, 4.000000, 0.000000, 4.000000
87.000000, 0.000000, 4262.051270, 4200.512695, 3922.051270, 4112.820313, 3709.230713, 16187.000000, 8157.000000, 8358.000000, 0.000000, 0.000000, 0.000000, 3.000000, 546.099991, 1557649766.507062, 4.000000, 4.000000, 4.000000, 0.000000, 4.000000
88.000000, 0.000000, 4253.333008, 4200.000000, 3915.384521, 4105.127930, 3700.512695, 450.000000, 8155.000000, 8368.000000, 0.000000, 0.000000, 0.000000, 3.000000, 553.899979, 1557649766.514862, 4.000000, 4.000000, 4.000000, 0.000000, 4.000000
89.000000, 0.000000, 4254.871582, 4202.051270, 3915.897461, 4098.974121, 3703.589600, 450.000000, 8157.000000, 8366.000000, 0.000000, 0.000000, 0.000000, 3.000000, 561.899979, 1557649766.522862, 4.000000, 4.000000, 4.000000, 0.000000, 4.000000
90.000000, 0.000000, 4264.102539, 4180.512695, 3915.897461, 4098.461426, 3700.000000, 450.000000, 8156.000000, 8356.000000, 0.000000, 0.000000, 0.000000, 3.000000, 569.800003, 1557649766.530762, 4.000000, 4.000000, 4.000000, 0.000000, 4.000000
91.000000, 0.000000, 4265.127930, 4165.641113, 3902.563965, 4099.487305, 3685.128174, 16187.000000, 8154.000000, 8359.000000, 0.000000, 0.000000, 0.000000, 3.000000, 577.800003, 1557649766.538762, 4.000000, 4.000000, 4.000000, 0.000000, 4.000000
92.000000, 0.000000, 4261.025391, 4173.846191, 3894.871582, 4100.512695, 3684.615234, 450.000000, 8149.000000, 8364.000000, 0.000000, 0.000000, 0.000000, 3.000000, 585.599991, 1557649766.546562, 4.000000, 4.000000, 4.000000, 0.000000, 4.000000
93.000000, 0.000000, 4264.102539, 4171.794922, 3896.923096, 4102.563965, 3691.794678, 450.000000, 8147.000000, 8361.000000, 0.000000, 0.000000, 0.000000, 3.000000, 593.399979, 1557649766.554362, 4.000000, 4.000000, 4.000000, 0.000000, 4.000000
94.000000, 0.000000, 4261.538574, 4166.153809, 3890.256348, 4100.512695, 3678.461426, 450.000000, 8147.000000, 8353.000000, 0.000000, 0.000000, 0.000000, 3.000000, 601.200027, 1557649766.562162, 4.000000, 4.000000, 4.000000, 0.000000, 4.000000
95.000000, 0.000000, 4254.871582, 4173.333008, 3900.000000, 4107.692383, 3667.692139, 16187.000000, 8147.000000, 8360.000000, 0.000000, 0.000000, 0.000000, 3.000000, 609.000015, 1557649766.569962, 4.000000, 4.000000, 4.000000, 0.000000, 4.000000
96.000000, 0.000000, 4262.051270, 4167.179199, 3920.000000, 4117.948730, 3678.461426, 450.000000, 8144.000000, 8361.000000, 0.000000, 0.000000, 0.000000, 3.000000, 616.899979, 1557649766.577862, 4.000000, 4.000000, 4.000000, 0.000000, 4.000000
97.000000, 0.000000, 4264.102539, 4155.384277, 3914.358887, 4107.179199, 3680.512695, 450.000000, 8147.000000, 8361.000000, 0.000000, 0.000000, 0.000000, 3.000000, 624.800003, 1557649766.585762, 4.000000, 4.000000, 4.000000, 0.000000, 4.000000
98.000000, 0.000000, 4260.512695, 4170.769043, 3908.205078, 4094.358887, 3677.948730, 450.000000, 8140.000000, 8369.000000, 0.000000, 0.000000, 0.000000, 3.000000, 632.800003, 1557649766.593762, 4.000000, 4.000000, 4.000000, 0.000000, 4.000000
99.000000, 0.000000, 4269.230469, 4197.948730, 3918.974365, 4101.025391, 3684.102539, 16187.000000, 8143.000000, 8363.000000, 0.000000, 0.000000, 0.000000, 3.000000, 640.800003, 1557649766.601762, 4.000000, 4.000000, 4.000000, 0.000000, 4.000000
100.000000, 0.000000, 4273.333008, 4193.846191, 3914.358887, 4110.256348, 3675.897461, 450.000000, 8149.000000, 8356.000000, 0.000000, 0.000000, 0.000000, 3.000000, 648.800003, 1557649766.609762, 4.000000, 4.000000, 4.000000, 0.000000, 4.000000
101.000000, 0.000000, 4261.025391, 4169.230469, 3897.948730, 4104.615234, 3661.538330, 450.000000, 8147.000000, 8354.000000, 0.000000, 0.000000, 0.000000, 3.000000, 656.599991, 1557649766.617562, 4.000000, 4.000000, 4.000000, 0.000000, 4.000000
102.000000, 0.000000, 4261.025391, 4164.615234, 3903.589600, 4099.487305, 3668.717773, 450.000000, 8154.000000, 8366.000000, 0.000000, 0.000000, 0.000000, 3.000000, 664.399979, 1557649766.625362, 4.000000, 4.000000, 4.000000, 0.000000, 4.000000
103.000000, 0.000000, 4271.281738, 4173.333008, 3920.000000, 4105.127930, 3670.256348, 16187.000000, 8149.000000, 8352.000000, 0.000000, 0.000000, 0.000000, 3.000000, 672.099991, 1557649766.633062, 4.000000, 4.000000, 4.000000, 0.000000, 4.000000
104.000000, 0.000000, 4267.179199, 4170.769043, 3915.897461, 4107.179199, 3653.333252, 450.000000, 8143.000000, 8352.000000, 0.000000, 0.000000, 0.000000, 3.000000, 679.899979, 1557649766.640862, 4.000000, 4.000000, 4.000000, 0.000000, 4.000000
105.000000, 0.000000, 4263.076660, 4169.743652, 3893.333252, 4103.076660, 3648.205078, 450.000000, 8145.000000, 8359.000000, 0.000000, 0.000000, 0.000000, 3.000000, 687.899979, 1557649766.648862, 4.000000, 4.000000, 4.000000, 0.000000, 4.000000
106.000000, 0.000000, 4265.641113, 4175.384277, 3882.051270, 4101.025391, 3654.358887, 450.000000, 8148.000000, 8350.000000, 0.000000, 0.000000, 0.000000, 3.000000, 695.899979, 1557649766.656862, 4.000000, 4.000000, 4.000000, 0.000000, 4.000000
107.000000, 0.000000, 4263.076660, 4172.820313, 3891.794678, 4095.897217, 3654.358887, 16187.000000, 8152.000000, 8345.000000, 0.000000, 0.000000, 0.000000, 3.000000, 703.899979, 1557649766.664862, 4.000000, 4.000000, 4.000000, 0.000000, 4.000000
108.000000, 0.000000, 4261.538574, 4164.615234, 3897.435791, 4091.794678, 3650.256348, 450.000000, 8150.000000, 8355.000000, 0.000000, 0.000000, 0.000000, 3.000000, 711.899979, 1557649766.672862, 4.000000, 4.000000, 4.000000, 0.000000, 4.000000
109.000000, 0.000000, 4265.127930, 4166.666504, 3891.794678, 4097.436035, 3650.769043, 450.000000, 8151.000000, 8352.000000, 0.000000, 0.000000, 0.000000, 3.000000, 719.700027, 1557649766.680662, 4.000000, 4.000000, 4.000000, 0.000000, 4.000000
110.000000, 0.000000, 4266.153809, 4183.076660, 3899.487061, 4104.615234, 3652.307617, 450.000000, 8154.000000, 8354.000000, 0.000000, 0.000000, 0.000000, 3.000000, 727.399979, 1557649766.688362, 4.000000, 4.000000, 4.000000, 0.000000, 4.000000
111.000000, 0.000000, 4263.589844, 4185.127930, 3913.845947, 4103.589844, 3650.256348, 16187.000000, 8150.000000, 8360.000000, 0.000000, 0.000000, 0.000000, 3.000000, 735.200027, 1557649766.696162, 4.000000, 4.000000, 4.000000, 0.000000, 4.000000
112.000000, 0.000000, 4256.922852, 4166.666504, 3910.256348, 4093.845947, 3646.666504, 450.000000, 8148.000000, 8356.000000, 0.000000, 0.000000, 0.000000, 3.000000, 743.000015, 1557649766.703962, 4.000000, 4.000000, 4.000000, 0.000000, 4.000000
113.000000, 0.000000, 4244.615234, 4161.025391, 3897.948730, 4088.205078, 3642.563965, 450.000000, 8151.000000, 8354.000000, 0.000000, 0.000000, 0.000000, 3.000000, 751.000015, 1557649766.711962, 4.000000, 4.000000, 4.000000, 0.000000, 4.000000
114.000000, 0.000000, 4245.127930, 4166.666504, 3892.307617, 4093.845947, 3637.948730, 450.000000, 8145.000000, 8353.000000, 0.000000, 0.000000, 0.000000, 3.000000, 759.000015, 1557649766.719962, 4.000000, 4.000000, 4.000000, 0.000000, 4.000000
115.000000, 0.000000, 4262.051270, 4170.769043, 3890.256348, 4096.410156, 3637.948730, 16187.000000, 8142.000000, 8360.000000, 0.000000, 0.000000, 0.000000, 3.000000, 766.899979, 1557649766.727862, 4.000000, 4.000000, 4.000000, 0.000000, 4.000000
116.000000, 0.000000, 4258.461426, 4169.743652, 3886.666504, 4087.692139, 3638.974365, 450.000000, 8149.000000, 8361.000000, 0.000000, 0.000000, 0.000000, 3.000000, 774.899979, 1557649766.735862, 4.000000, 4.000000, 4.000000, 0.000000, 4.000000
117.000000, 0.000000, 4237.436035, 4155.897461, 3878.461426, 4077.435791, 3624.102539, 450.000000, 8151.000000, 8357.000000, 0.000000, 0.000000, 0.000000, 3.000000, 782.800003, 1557649766.743762, 4.000000, 4.000000, 4.000000, 0.000000, 4.000000
118.000000, 0.000000, 4240.000000, 4141.538574, 3873.333252, 4085.640869, 3612.307617, 450.000000, 8142.000000, 8373.000000, 0.000000, 0.000000, 0.000000, 3.000000, 790.600003, 1557649766.751562, 4.000000, 4.000000, 4.000000, 0.000000, 4.000000
119.000000, 0.000000, 4264.615234, 4166.153809, 3894.871582, 4106.153809, 3634.871826, 16187.000000, 8139.000000, 8363.000000, 0.000000, 0.000000, 0.000000, 3.000000, 798.400003, 1557649766.759362, 4.000000, 4.000000, 4.000000, 0.000000, 4.000000
120.000000, 0.000000, 4274.871582, 4185.641113, 3923.589600, 4110.256348, 3663.076904, 450.000000, 8143.000000, 8356.000000, 0.000000, 0.000000, 0.000000, 3.000000, 806.200003, 1557649766.767162, 4.000000, 4.000000, 4.000000, 0.000000, 4.000000
121.000000, 0.000000, 4272.820313, 4163.589844, 3920.512695, 4103.076660, 3664.102539, 450.000000, 8137.000000, 8356.000000, 0.000000, 0.000000, 0.000000, 3.000000, 814.200003, 1557649766.775162, 4.000000, 4.000000, 4.000000, 0.000000, 4.000000
122.000000, 0.000000, 4289.743652, 4158.461426, 3905.640869, 4102.563965, 3665.640869, 450.000000, 8136.000000, 8361.000000, 0.000000, 0.000000, 0.000000, 3.000000, 822.000004, 1557649766.782962, 4.000000, 4.000000, 4.000000, 0.000000, 4.000000
123.000000, 0.000000, 4287.179199, 4172.307617, 3907.179443, 4103.589844, 3669.230713, 16187.000000, 8147.000000, 8359.000000, 0.000000, 0.000000, 0.000000, 3.000000, 829.900002, 1557649766.790862, 4.000000, 4.000000, 4.000000, 0.000000, 4.000000
124.000000, 0.000000, 4256.410156, 4174.358887, 3913.845947, 4096.922852, 3656.410156, 450.000000, 8145.000000, 8365.000000, 0.000000, 0.000000, 0.000000, 3.000000, 837.900002, 1557649766.798862, 4.000000, 4.000000, 4.000000, 0.000000, 4.000000
125.000000, 0.000000, 4252.820313, 4175.897461, 3915.384521, 4095.384521, 3648.717773, 450.000000, 8144.000000, 8365.000000, 0.000000, 0.000000, 0.000000, 3.000000, 845.700005, 1557649766.806662, 4.000000, 4.000000, 4.000000, 0.000000, 4.000000
126.000000, 0.000000, 4271.281738, 4175.897461, 3913.333252, 4104.615234, 3653.333252, 450.000000, 8148.000000, 8352.000000, 0.000000, 0.000000, 0.000000, 3.000000, 853.500000, 1557649766.814462, 4.000000, 4.000000, 4.000000, 0.000000, 4.000000
127.000000, 0.000000, 4269.230469, 4168.205078, 3910.256348, 4100.512695, 3643.589600, 16187.000000, 8146.000000, 8359.000000, 0.000000, 0.000000, 0.000000, 3.000000, 861.300003, 1557649766.822262, 4.000000, 4.000000, 4.000000, 0.000000, 4.000000
