title:ganesh happy1, recorded:12.05.19 13.51.29, timestamp started:2019-05-12T13:51:29.437014+05:30, sampling:128, subject:, labels:COUNTER INTERPOLATED AF3 T7 Pz T8 AF4 RAW_CQ GYROX GYROY MARKER MARKER_HARDWARE SYNC TIME_STAMP_s TIME_STAMP_ms TimeStamp CQ_AF3 CQ_T7 CQ_Pz CQ_T8 CQ_AF4, chan:20, samples:11845, units:emotiv
76.000000, 0.000000, 4288.205078, 4199.487305, 3957.435791, 4054.358887, 3827.179443, 500.000000, 8150.000000, 8336.000000, 1.000000, 1.000000, 0.000000, 0.000000, 0.000000, 1557649289.437014, 4.000000, 4.000000, 4.000000, 0.000000, 4.000000
77.000000, 0.000000, 4275.897461, 4190.769043, 3947.692139, 4046.666504, 3821.538330, 500.000000, 8153.000000, 8334.000000, 0.000000, 0.000000, 0.000000, 0.000000, 7.800049, 1557649289.444814, 4.000000, 4.000000, 4.000000, 0.000000, 4.000000
78.000000, 0.000000, 4268.717773, 4190.769043, 3926.666504, 4051.794678, 3807.179443, 450.000000, 8154.000000, 8342.000000, 0.000000, 0.000000, 0.000000, 0.000000, 15.600037, 1557649289.452614, 4.000000, 4.000000, 4.000000, 0.000000, 4.000000
79.000000, 0.000000, 4278.974121, 4185.127930, 3908.205078, 4056.410156, 3795.384521, 16181.000000, 8145.000000, 8346.000000, 0.000000, 0.000000, 0.000000, 0.000000, 23.500000, 1557649289.460514, 4.000000, 4.000000, 4.000000, 0.000000, 4.000000
80.000000, 0.000000, 4300.000000, 4173.333008, 3910.769043, 4056.410156, 3810.256348, 450.000000, 8136.000000, 8349.000000, 0.000000, 0.000000, 0.000000, 0.000000, 31.500000, 1557649289.468514, 4.000000, 4.000000, 4.000000, 0.000000, 4.000000
81.000000, 0.000000, 4312.307617, 4171.281738, 3922.051270, 4061.538330, 3825.640869, 450.000000, 8136.000000, 8347.000000, 0.000000, 0.000000, 0.000000, 0.000000, 39.400024, 1557649289.476414, 4.000000, 4.000000, 4.000000, 0.000000, 4.000000
82.000000, 0.000000, 4313.333008, 4179.487305, 3938.461426, 4064.102539, 3827.692139, 450.000000, 8130.000000, 8346.000000, 0.000000, 0.000000, 0.000000, 0.000000, 47.400024, 1557649289.484414, 4.000000, 4.000000, 4.000000, 0.000000, 4.000000
83.000000, 0.000000, 4307.692383, 4171.281738, 3951.794678, 4052.307617, 3823.076904, 16181.000000, 8128.000000, 8356.000000, 0.000000, 0.000000, 0.000000, 0.000000, 55.300049, 1557649289.492314, 4.000000, 4.000000, 4.000000, 0.000000, 4.000000
84.000000, 0.000000, 4290.256348, 4146.153809, 3936.410156, 4026.153809, 3797.948730, 450.000000, 8129.000000, 8360.000000, 0.000000, 0.000000, 0.000000, 0.000000, 63.300049, 1557649289.500314, 4.000000, 4.000000, 4.000000, 0.000000, 4.000000
85.000000, 0.000000, 4284.102539, 4133.846191, 3921.025635, 4024.102539, 3781.538330, 450.000000, 8137.000000, 8347.000000, 0.000000, 0.000000, 0.000000, 0.000000, 71.000000, 1557649289.508014, 4.000000, 4.000000, 4.000000, 0.000000, 4.000000
86.000000, 0.000000, 4295.384277, 4135.384277, 3941.025635, 4058.461426, 3793.845947, 450.000000, 8133.000000, 8344.000000, 0.000000, 0.000000, 0.000000, 0.000000, 78.700012, 1557649289.515714, 4.000000, 4.000000, 4.000000, 0.000000, 4.000000
87.000000, 0.000000, 4279.487305, 4125.127930, 3952.820313, 4060.000000, 3786.153809, 16181.000000, 8132.000000, 8347.000000, 0.000000, 0.000000, 0.000000, 0.000000, 86.600037, 1557649289.523614, 4.000000, 4.000000, 4.000000, 0.000000, 4.000000
88.000000, 0.000000, 4248.717773, 4104.615234, 3926.666504, 4023.076904, 3757.948730, 450.000000, 8134.000000, 8338.000000, 0.000000, 0.000000, 0.000000, 0.000000, 94.500000, 1557649289.531514, 4.000000, 4.000000, 4.000000, 0.000000, 4.000000
89.000000, 0.000000, 4248.717773, 4090.769043, 3918.974365, 4025.640869, 3753.845947, 450.000000, 8143.000000, 8335.000000, 0.000000, 0.000000, 0.000000, 0.000000, 102.500000, 1557649289.539514, 4.000000, 4.000000, 4.000000, 0.000000, 4.000000
90.000000, 0.000000, 4270.256348, 4099.487305, 3954.358887, 4056.923096, 3772.820313, 450.000000, 8149.000000, 8333.000000, 0.000000, 0.000000, 0.000000, 0.000000, 110.400024, 1557649289.547414, 4.000000, 4.000000, 4.000000, 0.000000, 4.000000
91.000000, 0.000000, 4277.436035, 4112.307617, 3982.051270, 4045.128174, 3778.974365, 16181.000000, 8156.000000, 8337.000000, 0.000000, 0.000000, 0.000000, 0.000000, 118.300049, 1557649289.555314, 4.000000, 4.000000, 4.000000, 0.000000, 4.000000
92.000000, 0.000000, 4266.666504, 4090.256348, 3975.384521, 4022.051270, 3762.051270, 450.000000, 8154.000000, 8341.000000, 0.000000, 0.000000, 0.000000, 0.000000, 126.300049, 1557649289.563314, 4.000000, 4.000000, 4.000000, 0.000000, 4.000000
93.000000, 0.000000, 4258.974121, 4068.205078, 3968.205078, 4041.538330, 3753.333252, 450.000000, 8158.000000, 8341.000000, 0.000000, 0.000000, 0.000000, 0.000000, 134.000000, 1557649289.571014, 4.000000, 4.000000, 4.000000, 0.000000, 4.000000
94.000000, 0.000000, 4262.051270, 4073.845947, 3972.307617, 4061.538330, 3762.563965, 450.000000, 8162.000000, 8334.000000, 0.000000, 0.000000, 0.000000, 0.000000, 141.800049, 1557649289.578814, 4.000000, 4.000000, 4.000000, 0.000000, 4.000000
95.000000, 0.000000, 4267.692383, 4068.205078, 3958.974365, 4041.025635, 3761.025635, 16181.000000, 8167.000000, 8330.000000, 0.000000, 0.000000, 0.000000, 0.000000, 149.600037, 1557649289.586614, 4.000000, 4.000000, 4.000000, 0.000000, 4.000000
96.000000, 0.000000, 4263.589844, 4051.794678, 3934.871582, 4028.717773, 3746.153809, 450.000000, 8162.000000, 8340.000000, 0.000000, 0.000000, 0.000000, 0.000000, 157.600037, 1557649289.594614, 4.000000, 4.000000, 4.000000, 0.000000, 4.000000
97.000000, 0.000000, 4245.641113, 4038.461426, 3914.358887, 4040.000000, 3735.897461, 450.000000, 8157.000000, 8351.000000, 0.000000, 0.000000, 0.000000, 0.000000, 165.500000, 1557649289.602514, 4.000000, 4.000000, 4.000000, 0.000000, 4.000000
98.000000, 0.000000, 4226.666504, 4012.820313, 3890.769043, 4033.845947, 3724.102539, 450.000000, 8163.000000, 8336.000000, 0.000000, 0.000000, 0.000000, 0.000000, 173.400024, 1557649289.610414, 4.000000, 4.000000, 4.000000, 0.000000, 4.000000
99.000000, 0.000000, 4225.641113, 3984.615234, 3877.435791, 4028.717773, 3710.769043, 16181.000000, 8155.000000, 8340.000000, 0.000000, 0.000000, 0.000000, 0.000000, 181.400024, 1557649289.618414, 4.000000, 4.000000, 4.000000, 0.000000, 4.000000
100.000000, 0.000000, 4235.384277, 3976.410156, 3896.923096, 4038.461426, 3714.871582, 450.000000, 8152.000000, 8353.000000, 0.000000, 0.000000, 0.000000, 0.000000, 189.300049, 1557649289.626314, 4.000000, 4.000000, 4.000000, 0.000000, 4.000000
101.000000, 0.000000, 4223.076660, 3962.051270, 3922.051270, 4036.923096, 3709.743408, 450.000000, 8154.000000, 8356.000000, 0.000000, 0.000000, 0.000000, 0.000000, 197.300049, 1557649289.634314, 4.000000, 4.000000, 4.000000, 0.000000, 4.000000
102.000000, 0.000000, 4205.641113, 3935.897461, 3923.076904, 4022.563965, 3685.128174, 450.000000, 8152.000000, 8357.000000, 0.000000, 0.000000, 0.000000, 0.000000, 205.000000, 1557649289.642014, 4.000000, 4.000000, 4.000000, 0.000000, 4.000000
103.000000, 0.000000, 4221.025391, 3948.205078, 3925.128174, 4014.871582, 3685.640869, 16181.000000, 8151.000000, 8364.000000, 0.000000, 0.000000, 0.000000, 0.000000, 212.700012, 1557649289.649714, 4.000000, 4.000000, 4.000000, 0.000000, 4.000000
104.000000, 0.000000, 4236.922852, 3974.871582, 3948.205078, 4022.563965, 3704.102539, 450.000000, 8144.000000, 8357.000000, 0.000000, 0.000000, 0.000000, 0.000000, 220.500000, 1557649289.657514, 4.000000, 4.000000, 4.000000, 0.000000, 4.000000
105.000000, 0.000000, 4227.179199, 3946.666504, 3966.666504, 4031.281982, 3695.897461, 450.000000, 8138.000000, 8363.000000, 0.000000, 0.000000, 0.000000, 0.000000, 228.400024, 1557649289.665414, 4.000000, 4.000000, 4.000000, 0.000000, 4.000000
106.000000, 0.000000, 4226.153809, 3904.615234, 3981.538330, 4020.512695, 3678.974365, 450.000000, 8142.000000, 8370.000000, 0.000000, 0.000000, 0.000000, 0.000000, 236.400024, 1557649289.673414, 4.000000, 4.000000, 4.000000, 0.000000, 4.000000
107.000000, 0.000000, 4233.846191, 3914.871582, 3995.384521, 4015.384521, 3680.000000, 16181.000000, 8141.000000, 8361.000000, 0.000000, 0.000000, 0.000000, 0.000000, 244.300049, 1557649289.681314, 4.000000, 4.000000, 4.000000, 0.000000, 4.000000
108.000000, 0.000000, 4229.230469, 3929.230713, 3999.487061, 4031.281982, 3681.025635, 450.000000, 8143.000000, 8359.000000, 0.000000, 0.000000, 0.000000, 0.000000, 252.300049, 1557649289.689314, 4.000000, 4.000000, 4.000000, 0.000000, 4.000000
109.000000, 0.000000, 4234.871582, 3923.076904, 4012.820313, 4038.974365, 3681.538330, 450.000000, 8143.000000, 8366.000000, 0.000000, 0.000000, 0.000000, 0.000000, 260.000000, 1557649289.697014, 4.000000, 4.000000, 4.000000, 0.000000, 4.000000
110.000000, 0.000000, 4246.666504, 3927.179443, 4031.794678, 4032.820313, 3682.563965, 450.000000, 8142.000000, 8371.000000, 0.000000, 0.000000, 0.000000, 0.000000, 267.700012, 1557649289.704714, 4.000000, 4.000000, 4.000000, 0.000000, 4.000000
111.000000, 0.000000, 4224.615234, 3908.717773, 4014.358887, 4029.230713, 3661.025635, 16181.000000, 8146.000000, 8356.000000, 0.000000, 0.000000, 0.000000, 0.000000, 275.500000, 1557649289.712514, 4.000000, 4.000000, 4.000000, 0.000000, 4.000000
112.000000, 0.000000, 4186.666504, 3858.461426, 3964.615234, 4024.102539, 3630.256348, 450.000000, 8150.000000, 8357.000000, 0.000000, 0.000000, 0.000000, 0.000000, 283.400024, 1557649289.720414, 4.000000, 4.000000, 4.000000, 0.000000, 4.000000
113.000000, 0.000000, 4177.436035, 3841.538330, 3934.871582, 4021.025635, 3630.256348, 450.000000, 8147.000000, 8365.000000, 0.000000, 0.000000, 0.000000, 0.000000, 291.400024, 1557649289.728414, 4.000000, 4.000000, 4.000000, 0.000000, 4.000000
114.000000, 0.000000, 4196.922852, 3859.487061, 3945.128174, 4030.256348, 3650.769043, 450.000000, 8150.000000, 8358.000000, 0.000000, 0.000000, 0.000000, 0.000000, 299.300049, 1557649289.736314, 4.000000, 4.000000, 4.000000, 0.000000, 4.000000
115.000000, 0.000000, 4207.179199, 3855.384521, 3967.692139, 4028.717773, 3649.230713, 16181.000000, 8144.000000, 8348.000000, 0.000000, 0.000000, 0.000000, 0.000000, 307.200012, 1557649289.744214, 4.000000, 4.000000, 4.000000, 0.000000, 4.000000
116.000000, 0.000000, 4197.948730, 3835.897461, 3973.845947, 4021.538330, 3633.845947, 450.000000, 8149.000000, 8357.000000, 0.000000, 0.000000, 0.000000, 0.000000, 315.200024, 1557649289.752214, 4.000000, 4.000000, 4.000000, 0.000000, 4.000000
117.000000, 0.000000, 4198.461426, 3835.897461, 3960.512695, 4032.307617, 3634.871826, 450.000000, 8154.000000, 8343.000000, 0.000000, 0.000000, 0.000000, 0.000000, 323.100024, 1557649289.760114, 4.000000, 4.000000, 4.000000, 0.000000, 4.000000
118.000000, 0.000000, 4204.102539, 3829.230713, 3943.076904, 4031.281982, 3631.281982, 450.000000, 8157.000000, 8348.000000, 0.000000, 0.000000, 0.000000, 0.000000, 330.900024, 1557649289.767914, 4.000000, 4.000000, 4.000000, 0.000000, 4.000000
119.000000, 0.000000, 4199.487305, 3811.794678, 3945.128174, 4027.179443, 3614.871826, 16181.000000, 8147.000000, 8348.000000, 0.000000, 0.000000, 0.000000, 0.000000, 338.600025, 1557649289.775614, 4.000000, 4.000000, 4.000000, 0.000000, 4.000000
120.000000, 0.000000, 4207.692383, 3832.307617, 3969.743408, 4044.615234, 3627.179443, 450.000000, 8153.000000, 8342.000000, 0.000000, 0.000000, 0.000000, 0.000000, 346.500023, 1557649289.783514, 4.000000, 4.000000, 4.000000, 0.000000, 4.000000
121.000000, 0.000000, 4210.769043, 3840.000000, 3976.410156, 4046.153809, 3647.179443, 450.000000, 8153.000000, 8348.000000, 0.000000, 0.000000, 0.000000, 0.000000, 354.400024, 1557649289.791414, 4.000000, 4.000000, 4.000000, 0.000000, 4.000000
122.000000, 0.000000, 4187.692383, 3791.281982, 3953.333252, 4020.512695, 3621.025635, 450.000000, 8145.000000, 8355.000000, 0.000000, 0.000000, 0.000000, 0.000000, 362.300026, 1557649289.799314, 4.000000, 4.000000, 4.000000, 0.000000, 4.000000
123.000000, 0.000000, 4173.333008, 3770.256348, 3950.769043, 4013.333252, 3596.410156, 16181.000000, 8154.000000, 8356.000000, 0.000000, 0.000000, 0.000000, 0.000000, 370.300026, 1557649289.807314, 4.000000, 4.000000, 4.000000, 0.000000, 4.000000
124.000000, 0.000000, 4173.846191, 3783.589600, 3957.435791, 4024.615234, 3603.076904, 450.000000, 8148.000000, 8346.000000, 0.000000, 0.000000, 0.000000, 0.000000, 378.200027, 1557649289.815214, 4.000000, 4.000000, 4.000000, 0.000000, 4.000000
125.000000, 0.000000, 4171.281738, 3766.666504, 3946.666504, 4026.666504, 3598.461426, 450.000000, 8144.000000, 8348.000000, 0.000000, 0.000000, 0.000000, 0.000000, 386.200027, 1557649289.823214, 4.000000, 4.000000, 4.000000, 0.000000, 4.000000
126.000000, 0.000000, 4173.333008, 3753.845947, 3948.717773, 4023.076904, 3593.333252, 450.000000, 8144.000000, 8360.000000, 0.000000, 0.000000, 0.000000, 0.000000, 393.900024, 1557649289.830914, 4.000000, 4.000000, 4.000000, 0.000000, 4.000000
127.000000, 0.000000, 4170.256348, 3757.435791, 3956.410156, 4015.897217, 3594.358887, 16181.000000, 8142.000000, 8358.000000, 0.000000, 0.000000, 0.000000, 0.000000, 401.600021, 1557649289.838614, 4.000000, 4.000000, 4.000000, 0.000000, 4.000000
128.000000, 0.000000, 4164.102539, 3737.435791, 3941.025635, 4019.487061, 3581.025635, 500.000000, 8139.000000, 8348.000000, 0.000000, 0.000000, 0.000000, 0.000000, 409.500023, 1557649289.846514, 4.000000, 4.000000, 4.000000, 0.000000, 4.000000
0.000000, 0.000000, 4173.333008, 3728.205078, 3940.000000, 4032.307617, 3569.230713, 500.000000, 8142.000000, 8352.000000, 0.000000, 0.000000, 0.000000, 0.000000, 417.400024, 1557649289.854414, 4.000000, 4.000000, 4.000000, 0.000000, 4.000000
1.000000, 0.000000, 4164.102539, 3741.538330, 3948.717773, 4022.051270, 3563.589600, 500.000000, 8138.000000, 8355.000000, 0.000000, 0.000000, 0.000000, 0.000000, 425.400024, 1557649289.862414, 4.000000, 4.000000, 4.000000, 0.000000, 4.000000
2.000000, 0.000000, 4135.897461, 3733.333252, 3927.692139, 4009.743408, 3551.281982, 16190.000000, 8141.000000, 8352.000000, 0.000000, 0.000000, 0.000000, 0.000000, 433.300026, 1557649289.870314, 4.000000, 4.000000, 4.000000, 0.000000, 4.000000
3.000000, 0.000000, 4144.615234, 3723.076904, 3918.974365, 4027.692139, 3565.128174, 500.000000, 8136.000000, 8354.000000, 0.000000, 0.000000, 0.000000, 0.000000, 441.300018, 1557649289.878314, 4.000000, 4.000000, 4.000000, 0.000000, 4.000000
4.000000, 0.000000, 4172.820313, 3731.794678, 3942.563965, 4040.000000, 3596.410156, 16167.000000, 8139.000000, 8351.000000, 0.000000, 0.000000, 0.000000, 0.000000, 449.200027, 1557649289.886214, 4.000000, 4.000000, 4.000000, 0.000000, 4.000000
5.000000, 0.000000, 4172.820313, 3729.743408, 3945.640869, 4035.384521, 3595.897461, 500.000000, 8135.000000, 8344.000000, 0.000000, 0.000000, 0.000000, 0.000000, 456.900024, 1557649289.893914, 4.000000, 4.000000, 4.000000, 0.000000, 4.000000
6.000000, 0.000000, 4149.743652, 3713.333252, 3930.769043, 4035.384521, 3577.435791, 16134.000000, 8140.000000, 8354.000000, 0.000000, 0.000000, 0.000000, 0.000000, 464.700027, 1557649289.901714, 4.000000, 4.000000, 4.000000, 0.000000, 4.000000
7.000000, 0.000000, 4124.615234, 3696.923096, 3934.871582, 4024.615234, 3556.410156, 500.000000, 8137.000000, 8357.000000, 0.000000, 0.000000, 0.000000, 0.000000, 472.500031, 1557649289.909514, 4.000000, 4.000000, 4.000000, 0.000000, 4.000000
8.000000, 0.000000, 4128.717773, 3695.384521, 3958.974365, 4017.435791, 3544.102539, 500.000000, 8138.000000, 8352.000000, 0.000000, 0.000000, 0.000000, 0.000000, 480.500031, 1557649289.917514, 4.000000, 4.000000, 4.000000, 0.000000, 4.000000
9.000000, 0.000000, 4159.487305, 3723.076904, 3978.974365, 4034.871582, 3565.640869, 9.000000, 8150.000000, 8343.000000, 0.000000, 0.000000, 0.000000, 0.000000, 488.400024, 1557649289.925414, 4.000000, 4.000000, 4.000000, 0.000000, 4.000000
10.000000, 0.000000, 4162.563965, 3735.384521, 3978.974365, 4047.692139, 3589.743408, 500.000000, 8142.000000, 8359.000000, 0.000000, 0.000000, 0.000000, 0.000000, 496.300018, 1557649289.933314, 4.000000, 4.000000, 4.000000, 0.000000, 4.000000
11.000000, 0.000000, 4143.076660, 3701.025635, 3970.256348, 4036.410156, 3577.435791, 16193.000000, 8137.000000, 8353.000000, 0.000000, 0.000000, 0.000000, 0.000000, 504.300018, 1557649289.941314, 4.000000, 4.000000, 4.000000, 0.000000, 4.000000
12.000000, 0.000000, 4135.384277, 3677.435791, 3964.615234, 4015.897217, 3544.615234, 500.000000, 8148.000000, 8346.000000, 0.000000, 0.000000, 0.000000, 0.000000, 512.000031, 1557649289.949014, 4.000000, 4.000000, 4.000000, 0.000000, 4.000000
13.000000, 0.000000, 4122.563965, 3687.692139, 3949.230713, 4005.128174, 3520.512695, 500.000000, 8142.000000, 8352.000000, 0.000000, 0.000000, 0.000000, 0.000000, 520.000031, 1557649289.957014, 4.000000, 4.000000, 4.000000, 0.000000, 4.000000
14.000000, 0.000000, 4105.641113, 3697.948730, 3936.923096, 4016.410156, 3524.102539, 450.000000, 8150.000000, 8356.000000, 0.000000, 0.000000, 0.000000, 0.000000, 527.700027, 1557649289.964714, 4.000000, 4.000000, 4.000000, 0.000000, 4.000000
15.000000, 0.000000, 4118.461426, 3711.281982, 3942.563965, 4035.384521, 3549.230713, 16193.000000, 8150.000000, 8350.000000, 0.000000, 0.000000, 0.000000, 0.000000, 535.500031, 1557649289.972514, 4.000000, 4.000000, 4.000000, 0.000000, 4.000000
16.000000, 0.000000, 4138.974121, 3715.897461, 3937.435791, 4040.512695, 3556.410156, 0.000000, 8150.000000, 8353.000000, 0.000000, 0.000000, 0.000000, 0.000000, 543.400024, 1557649289.980414, 4.000000, 4.000000, 4.000000, 0.000000, 4.000000
17.000000, 0.000000, 4131.281738, 3700.512695, 3916.923096, 4038.461426, 3553.845947, 0.000000, 8154.000000, 8355.000000, 0.000000, 0.000000, 0.000000, 0.000000, 551.300018, 1557649289.988314, 4.000000, 4.000000, 4.000000, 0.000000, 4.000000
18.000000, 0.000000, 4113.846191, 3693.845947, 3910.769043, 4030.256348, 3556.923096, 0.000000, 8153.000000, 8355.000000, 0.000000, 0.000000, 0.000000, 0.000000, 559.300018, 1557649289.996314, 4.000000, 4.000000, 4.000000, 0.000000, 4.000000
19.000000, 0.000000, 4107.692383, 3696.410156, 3913.333252, 4024.615234, 3544.102539, 0.000000, 8153.000000, 8361.000000, 0.000000, 0.000000, 0.000000, 0.000000, 567.200027, 1557649290.004214, 4.000000, 4.000000, 4.000000, 0.000000, 4.000000
20.000000, 0.000000, 4115.384277, 3696.410156, 3916.410156, 4040.000000, 3540.512695, 0.000000, 8151.000000, 8365.000000, 0.000000, 0.000000, 0.000000, 0.000000, 575.200012, 1557649290.012214, 4.000000, 4.000000, 4.000000, 0.000000, 4.000000
21.000000, 0.000000, 4113.333008, 3703.076904, 3910.769043, 4044.615234, 3547.692139, 0.000000, 8159.000000, 8350.000000, 0.000000, 0.000000, 0.000000, 0.000000, 583.100037, 1557649290.020114, 4.000000, 4.000000, 4.000000, 0.000000, 4.000000
22.000000, 0.000000, 4085.128174, 3693.333252, 3881.025635, 4019.487061, 3516.410156, 0.000000, 8153.000000, 8356.000000, 0.000000, 0.000000, 0.000000, 0.000000, 590.900024, 1557649290.027914, 4.000000, 4.000000, 4.000000, 0.000000, 4.000000
23.000000, 0.000000, 4071.281982, 3675.897461, 3857.948730, 4006.153809, 3492.820313, 0.000000, 8149.000000, 8366.000000, 0.000000, 0.000000, 0.000000, 0.000000, 598.600037, 1557649290.035614, 4.000000, 4.000000, 4.000000, 0.000000, 4.000000
24.000000, 0.000000, 4097.436035, 3695.384521, 3860.512695, 4025.128174, 3525.640869, 0.000000, 8149.000000, 8367.000000, 0.000000, 0.000000, 0.000000, 0.000000, 606.500031, 1557649290.043514, 4.000000, 4.000000, 4.000000, 0.000000, 4.000000
25.000000, 0.000000, 4104.615234, 3715.384521, 3844.102539, 4041.538330, 3537.435791, 0.000000, 8152.000000, 8355.000000, 0.000000, 0.000000, 0.000000, 0.000000, 614.500031, 1557649290.051514, 4.000000, 4.000000, 4.000000, 0.000000, 4.000000
26.000000, 0.000000, 4070.769043, 3693.333252, 3818.974365, 4029.743408, 3507.179443, 0.000000, 8150.000000, 8355.000000, 0.000000, 0.000000, 0.000000, 0.000000, 622.400024, 1557649290.059414, 4.000000, 4.000000, 4.000000, 0.000000, 4.000000
27.000000, 0.000000, 4055.384521, 3667.692139, 3827.179443, 4022.563965, 3502.563965, 0.000000, 8149.000000, 8364.000000, 0.000000, 0.000000, 0.000000, 0.000000, 630.400024, 1557649290.067414, 4.000000, 4.000000, 4.000000, 0.000000, 4.000000
28.000000, 0.000000, 4065.128174, 3675.384521, 3836.923096, 4028.717773, 3511.281982, 0.000000, 8148.000000, 8362.000000, 0.000000, 0.000000, 0.000000, 0.000000, 638.300018, 1557649290.075314, 4.000000, 4.000000, 4.000000, 0.000000, 4.000000
29.000000, 0.000000, 4065.640869, 3684.102539, 3829.230713, 4020.512695, 3501.538330, 0.000000, 8144.000000, 8364.000000, 0.000000, 0.000000, 0.000000, 0.000000, 646.200012, 1557649290.083214, 4.000000, 4.000000, 4.000000, 0.000000, 4.000000
30.000000, 0.000000, 4064.102539, 3676.923096, 3824.102539, 4012.307617, 3491.281982, 0.000000, 8137.000000, 8361.000000, 0.000000, 0.000000, 0.000000, 0.000000, 654.200012, 1557649290.091214, 4.000000, 4.000000, 4.000000, 0.000000, 4.000000
31.000000, 0.000000, 4057.948730, 3677.948730, 3822.051270, 4020.512695, 3492.307617, 0.000000, 8148.000000, 8358.000000, 0.000000, 0.000000, 0.000000, 0.000000, 661.900024, 1557649290.098914, 4.000000, 4.000000, 4.000000, 0.000000, 4.000000
32.000000, 0.000000, 4041.025635, 3677.948730, 3820.512695, 4018.461426, 3491.794678, 0.000000, 8142.000000, 8354.000000, 0.000000, 0.000000, 0.000000, 0.000000, 669.700012, 1557649290.106714, 4.000000, 4.000000, 4.000000, 0.000000, 4.000000
33.000000, 0.000000, 4035.384521, 3665.640869, 3812.820313, 4008.717773, 3478.974365, 0.000000, 8142.000000, 8359.000000, 0.000000, 0.000000, 0.000000, 0.000000, 677.500031, 1557649290.114514, 4.000000, 4.000000, 4.000000, 0.000000, 4.000000
34.000000, 0.000000, 4043.589600, 3671.281982, 3796.923096, 4014.358887, 3475.384521, 0.000000, 8142.000000, 8360.000000, 0.000000, 0.000000, 0.000000, 0.000000, 685.500031, 1557649290.122514, 4.000000, 4.000000, 4.000000, 0.000000, 4.000000
35.000000, 0.000000, 4041.025635, 3681.538330, 3787.179443, 4012.307617, 3486.666504, 0.000000, 8144.000000, 8343.000000, 0.000000, 0.000000, 0.000000, 0.000000, 693.400024, 1557649290.130414, 4.000000, 4.000000, 4.000000, 0.000000, 4.000000
36.000000, 0.000000, 4019.487061, 3657.435791, 3782.051270, 4001.025635, 3473.845947, 0.000000, 8138.000000, 8348.000000, 0.000000, 0.000000, 0.000000, 0.000000, 701.300018, 1557649290.138314, 4.000000, 4.000000, 4.000000, 0.000000, 4.000000
37.000000, 0.000000, 4012.820313, 3652.307617, 3790.256348, 4013.845947, 3461.538330, 0.000000, 8137.000000, 8351.000000, 0.000000, 0.000000, 0.000000, 0.000000, 709.300018, 1557649290.146314, 4.000000, 4.000000, 4.000000, 0.000000, 4.000000
38.000000, 0.000000, 4029.230713, 3680.000000, 3811.794678, 4028.717773, 3490.256348, 0.000000, 8141.000000, 8339.000000, 0.000000, 0.000000, 0.000000, 0.000000, 717.200012, 1557649290.154214, 4.000000, 4.000000, 4.000000, 0.000000, 4.000000
39.000000, 0.000000, 4030.769043, 3681.025635, 3807.179443, 4018.461426, 3503.589600, 0.000000, 8140.000000, 8331.000000, 0.000000, 0.000000, 0.000000, 0.000000, 725.000031, 1557649290.162014, 4.000000, 4.000000, 4.000000, 0.000000, 4.000000
40.000000, 0.000000, 4028.717773, 3688.205078, 3795.384521, 4005.640869, 3502.563965, 0.000000, 8139.000000, 8342.000000, 0.000000, 0.000000, 0.000000, 0.000000, 732.700012, 1557649290.169714, 4.000000, 4.000000, 4.000000, 0.000000, 4.000000
41.000000, 0.000000, 4045.640869, 3713.845947, 3801.538330, 4011.281982, 3528.205078, 0.000000, 8141.000000, 8347.000000, 0.000000, 0.000000, 0.000000, 0.000000, 740.500031, 1557649290.177514, 4.000000, 4.000000, 4.000000, 0.000000, 4.000000
42.000000, 0.000000, 4061.025635, 3705.640869, 3796.923096, 4024.615234, 3540.000000, 0.000000, 8141.000000, 8342.000000, 0.000000, 0.000000, 0.000000, 0.000000, 748.500031, 1557649290.185514, 4.000000, 4.000000, 4.000000, 0.000000, 4.000000
43.000000, 0.000000, 4062.051270, 3695.897461, 3802.563965, 4034.358887, 3529.743408, 0.000000, 8141.000000, 8343.000000, 0.000000, 0.000000, 0.000000, 0.000000, 756.400024, 1557649290.193414, 4.000000, 4.000000, 4.000000, 0.000000, 4.000000
44.000000, 0.000000, 4048.205078, 3706.153809, 3811.281982, 4033.845947, 3527.692139, 0.000000, 8146.000000, 8339.000000, 0.000000, 0.000000, 0.000000, 0.000000, 764.400024, 1557649290.201414, 4.000000, 4.000000, 4.000000, 0.000000, 4.000000
45.000000, 0.000000, 4024.615234, 3695.384521, 3763.589600, 4014.871582, 3514.871826, 0.000000, 8142.000000, 8342.000000, 0.000000, 0.000000, 0.000000, 0.000000, 772.300018, 1557649290.209314, 4.000000, 4.000000, 4.000000, 0.000000, 4.000000
46.000000, 0.000000, 4025.128174, 3696.923096, 3718.974365, 4011.794678, 3505.640869, 0.000000, 8142.000000, 8353.000000, 0.000000, 0.000000, 0.000000, 0.000000, 780.300018, 1557649290.217314, 4.000000, 4.000000, 4.000000, 0.000000, 4.000000
47.000000, 0.000000, 4043.076904, 3721.025635, 3732.820313, 4034.358887, 3528.205078, 0.000000, 8138.000000, 8356.000000, 0.000000, 0.000000, 0.000000, 0.000000, 788.200012, 1557649290.225214, 4.000000, 4.000000, 4.000000, 0.000000, 4.000000
48.000000, 0.000000, 4032.307617, 3711.794678, 3731.281982, 4025.640869, 3531.794678, 0.000000, 8146.000000, 8343.000000, 0.000000, 0.000000, 0.000000, 0.000000, 795.900024, 1557649290.232914, 4.000000, 4.000000, 4.000000, 0.000000, 4.000000
49.000000, 0.000000, 4023.076904, 3700.000000, 3728.717773, 4012.307617, 3526.666504, 0.000000, 8148.000000, 8353.000000, 0.000000, 0.000000, 0.000000, 0.000000, 803.700012, 1557649290.240714, 4.000000, 4.000000, 4.000000, 0.000000, 4.000000
50.000000, 0.000000, 4035.384521, 3727.692139, 3762.051270, 4032.307617, 3541.025635, 0.000000, 8144.000000, 8360.000000, 0.000000, 0.000000, 0.000000, 0.000000, 811.600037, 1557649290.248614, 4.000000, 4.000000, 4.000000, 0.000000, 4.000000
51.000000, 0.000000, 4023.076904, 3740.512695, 3773.845947, 4037.948730, 3531.281982, 0.000000, 8149.000000, 8345.000000, 0.000000, 0.000000, 0.000000, 0.000000, 819.600037, 1557649290.256614, 4.000000, 4.000000, 4.000000, 0.000000, 4.000000
52.000000, 0.000000, 4002.563965, 3732.307617, 3763.589600, 4014.358887, 3507.692139, 0.000000, 8145.000000, 8352.000000, 0.000000, 0.000000, 0.000000, 0.000000, 827.400024, 1557649290.264414, 4.000000, 4.000000, 4.000000, 0.000000, 4.000000
53.000000, 0.000000, 4004.102539, 3737.948730, 3766.666504, 4012.307617, 3511.794678, 0.000000, 8152.000000, 8359.000000, 0.000000, 0.000000, 0.000000, 0.000000, 835.400024, 1557649290.272414, 4.000000, 4.000000, 4.000000, 0.000000, 4.000000
54.000000, 0.000000, 4005.128174, 3738.974365, 3768.717773, 4032.820313, 3515.897461, 0.000000, 8149.000000, 8355.000000, 0.000000, 0.000000, 0.000000, 0.000000, 843.300049, 1557649290.280314, 4.000000, 4.000000, 4.000000, 0.000000, 4.000000
55.000000, 0.000000, 3998.974365, 3742.051270, 3778.461426, 4035.384521, 3505.640869, 0.000000, 8148.000000, 8345.000000, 0.000000, 0.000000, 0.000000, 0.000000, 851.200012, 1557649290.288214, 4.000000, 4.000000, 4.000000, 0.000000, 4.000000
56.000000, 0.000000, 4002.051270, 3763.076904, 3792.307617, 4040.512695, 3510.256348, 0.000000, 8152.000000, 8347.000000, 0.000000, 0.000000, 0.000000, 0.000000, 859.000000, 1557649290.296014, 4.000000, 4.000000, 4.000000, 0.000000, 4.000000
57.000000, 0.000000, 4009.743408, 3775.897461, 3773.333252, 4047.179443, 3509.230713, 0.000000, 8151.000000, 8349.000000, 0.000000, 0.000000, 0.000000, 0.000000, 866.700012, 1557649290.303714, 4.000000, 4.000000, 4.000000, 0.000000, 4.000000
58.000000, 0.000000, 4015.384521, 3773.845947, 3757.948730, 4036.923096, 3495.897461, 0.000000, 8158.000000, 8341.000000, 0.000000, 0.000000, 0.000000, 0.000000, 874.600037, 1557649290.311614, 4.000000, 4.000000, 4.000000, 0.000000, 4.000000
59.000000, 0.000000, 4012.307617, 3771.794678, 3768.205078, 4029.230713, 3508.717773, 0.000000, 8156.000000, 8347.000000, 0.000000, 0.000000, 0.000000, 0.000000, 882.500000, 1557649290.319514, 4.000000, 4.000000, 4.000000, 0.000000, 4.000000
60.000000, 0.000000, 4003.589600, 3775.897461, 3762.051270, 4038.461426, 3527.692139, 0.000000, 8148.000000, 8349.000000, 0.000000, 0.000000, 0.000000, 0.000000, 890.400024, 1557649290.327414, 4.000000, 4.000000, 4.000000, 0.000000, 4.000000
61.000000, 0.000000, 4009.230713, 3793.333252, 3757.435791, 4045.640869, 3528.205078, 0.000000, 8154.000000, 8345.000000, 0.000000, 0.000000, 0.000000, 0.000000, 898.400024, 1557649290.335414, 4.000000, 4.000000, 4.000000, 0.000000, 4.000000
62.000000, 0.000000, 4018.974365, 3814.358887, 3766.666504, 4035.897217, 3532.820313, 0.000000, 8154.000000, 8340.000000, 0.000000, 0.000000, 0.000000, 0.000000, 906.300049, 1557649290.343314, 4.000000, 4.000000, 4.000000, 0.000000, 4.000000
63.000000, 0.000000, 4019.487061, 3812.820313, 3775.384521, 4035.384521, 3542.051270, 0.000000, 8147.000000, 8345.000000, 0.000000, 0.000000, 0.000000, 0.000000, 914.300049, 1557649290.351314, 4.000000, 4.000000, 4.000000, 0.000000, 4.000000
64.000000, 0.000000, 4022.051270, 3814.871582, 3794.871582, 4055.897217, 3544.102539, 500.000000, 8142.000000, 8350.000000, 0.000000, 0.000000, 0.000000, 0.000000, 922.000000, 1557649290.359014, 4.000000, 4.000000, 4.000000, 0.000000, 4.000000
65.000000, 0.000000, 4015.384521, 3827.179443, 3801.025635, 4064.615234, 3542.051270, 500.000000, 8144.000000, 8346.000000, 0.000000, 0.000000, 0.000000, 0.000000, 929.800049, 1557649290.366814, 4.000000, 4.000000, 4.000000, 0.000000, 4.000000
66.000000, 0.000000, 4003.076904, 3823.589600, 3778.974365, 4046.666504, 3532.820313, 16195.000000, 8137.000000, 8351.000000, 0.000000, 0.000000, 0.000000, 0.000000, 937.600037, 1557649290.374614, 4.000000, 4.000000, 4.000000, 0.000000, 4.000000
67.000000, 0.000000, 4006.153809, 3829.230713, 3777.435791, 4035.384521, 3534.871826, 500.000000, 8141.000000, 8352.000000, 0.000000, 0.000000, 0.000000, 0.000000, 945.500000, 1557649290.382514, 4.000000, 4.000000, 4.000000, 0.000000, 4.000000
68.000000, 0.000000, 4010.256348, 3849.230713, 3786.153809, 4044.102539, 3550.769043, 16162.000000, 8139.000000, 8339.000000, 0.000000, 0.000000, 0.000000, 0.000000, 953.500000, 1557649290.390514, 4.000000, 4.000000, 4.000000, 0.000000, 4.000000
69.000000, 0.000000, 4009.743408, 3857.948730, 3773.333252, 4055.384521, 3551.281982, 500.000000, 8139.000000, 8339.000000, 0.000000, 0.000000, 0.000000, 0.000000, 961.400024, 1557649290.398414, 4.000000, 4.000000, 4.000000, 0.000000, 4.000000
70.000000, 0.000000, 4012.820313, 3868.205078, 3766.153809, 4051.794678, 3547.179443, 16136.000000, 8133.000000, 8344.000000, 0.000000, 0.000000, 0.000000, 0.000000, 969.400024, 1557649290.406414, 4.000000, 4.000000, 4.000000, 0.000000, 4.000000
71.000000, 0.000000, 4009.230713, 3884.615234, 3757.948730, 4036.923096, 3554.358887, 500.000000, 8136.000000, 8337.000000, 0.000000, 0.000000, 0.000000, 0.000000, 977.300049, 1557649290.414314, 4.000000, 4.000000, 4.000000, 0.000000, 4.000000
72.000000, 0.000000, 4007.179443, 3884.615234, 3734.358887, 4036.923096, 3557.948730, 500.000000, 8141.000000, 8343.000000, 0.000000, 0.000000, 0.000000, 0.000000, 985.100037, 1557649290.422114, 4.000000, 4.000000, 4.000000, 0.000000, 4.000000
73.000000, 0.000000, 4016.923096, 3878.974365, 3720.000000, 4055.897217, 3558.974365, 9.000000, 8142.000000, 8341.000000, 0.000000, 0.000000, 0.000000, 0.000000, 992.800049, 1557649290.429814, 4.000000, 4.000000, 4.000000, 0.000000, 4.000000
74.000000, 0.000000, 4023.589600, 3886.666504, 3720.512695, 4063.076904, 3561.538330, 500.000000, 8141.000000, 8331.000000, 0.000000, 0.000000, 0.000000, 1.000000, 0.500000, 1557649290.437514, 4.000000, 4.000000, 4.000000, 0.000000, 4.000000
75.000000, 0.000000, 4024.102539, 3903.076904, 3714.871582, 4044.102539, 3559.487061, 16195.000000, 8149.000000, 8328.000000, 0.000000, 0.000000, 0.000000, 1.000000, 8.400024, 1557649290.445414, 4.000000, 4.000000, 4.000000, 0.000000, 4.000000
76.000000, 0.000000, 4030.769043, 3929.743408, 3696.923096, 4039.487061, 3561.025635, 500.000000, 8143.000000, 8339.000000, 0.000000, 0.000000, 0.000000, 1.000000, 16.300049, 1557649290.453314, 4.000000, 4.000000, 4.000000, 0.000000, 4.000000
77.000000, 0.000000, 4044.102539, 3949.230713, 3687.692139, 4060.512695, 3570.769043, 500.000000, 8148.000000, 8343.000000, 0.000000, 0.000000, 0.000000, 1.000000, 24.300049, 1557649290.461314, 4.000000, 4.000000, 4.000000, 0.000000, 4.000000
78.000000, 0.000000, 4056.410156, 3953.333252, 3703.589600, 4074.358887, 3578.461426, 450.000000, 8153.000000, 8333.000000, 0.000000, 0.000000, 0.000000, 1.000000, 32.200012, 1557649290.469214, 4.000000, 4.000000, 4.000000, 0.000000, 4.000000
79.000000, 0.000000, 4057.948730, 3960.512695, 3720.512695, 4077.435791, 3588.717773, 16195.000000, 8152.000000, 8328.000000, 0.000000, 0.000000, 0.000000, 1.000000, 40.100037, 1557649290.477114, 4.000000, 4.000000, 4.000000, 0.000000, 4.000000
80.000000, 0.000000, 4055.897217, 3969.230713, 3727.179443, 4076.923096, 3600.512695, 450.000000, 8152.000000, 8336.000000, 0.000000, 0.000000, 0.000000, 1.000000, 48.100037, 1557649290.485114, 4.000000, 4.000000, 4.000000, 0.000000, 4.000000
81.000000, 0.000000, 4061.538330, 3980.000000, 3733.845947, 4070.769043, 3595.897461, 450.000000, 8142.000000, 8337.000000, 0.000000, 0.000000, 0.000000, 1.000000, 56.000000, 1557649290.493014, 4.000000, 4.000000, 4.000000, 0.000000, 4.000000
82.000000, 0.000000, 4061.025635, 4002.051270, 3735.384521, 4069.743408, 3589.743408, 450.000000, 8146.000000, 8329.000000, 0.000000, 0.000000, 0.000000, 1.000000, 63.800049, 1557649290.500814, 4.000000, 4.000000, 4.000000, 0.000000, 4.000000
83.000000, 0.000000, 4046.666504, 4002.563965, 3722.051270, 4068.205078, 3591.281982, 16195.000000, 8148.000000, 8339.000000, 0.000000, 0.000000, 0.000000, 1.000000, 71.500000, 1557649290.508514, 4.000000, 4.000000, 4.000000, 0.000000, 4.000000
84.000000, 0.000000, 4032.820313, 3972.820313, 3695.897461, 4053.845947, 3579.487061, 450.000000, 8145.000000, 8339.000000, 0.000000, 0.000000, 0.000000, 1.000000, 79.500000, 1557649290.516514, 4.000000, 4.000000, 4.000000, 0.000000, 4.000000
85.000000, 0.000000, 4042.051270, 3976.410156, 3681.538330, 4050.769043, 3570.769043, 450.000000, 8150.000000, 8341.000000, 0.000000, 0.000000, 0.000000, 1.000000, 87.400024, 1557649290.524414, 4.000000, 4.000000, 4.000000, 0.000000, 4.000000
86.000000, 0.000000, 4062.563965, 4021.025635, 3696.410156, 4065.640869, 3591.281982, 450.000000, 8145.000000, 8346.000000, 0.000000, 0.000000, 0.000000, 1.000000, 95.300049, 1557649290.532314, 4.000000, 4.000000, 4.000000, 0.000000, 4.000000
87.000000, 0.000000, 4069.743408, 4042.051270, 3715.897461, 4066.666504, 3609.743408, 16195.000000, 8145.000000, 8339.000000, 0.000000, 0.000000, 0.000000, 1.000000, 103.300049, 1557649290.540314, 4.000000, 4.000000, 4.000000, 0.000000, 4.000000
88.000000, 0.000000, 4064.615234, 4031.281982, 3713.845947, 4058.974365, 3605.640869, 450.000000, 8145.000000, 8339.000000, 0.000000, 0.000000, 0.000000, 1.000000, 111.200012, 1557649290.548214, 4.000000, 4.000000, 4.000000, 0.000000, 4.000000
89.000000, 0.000000, 4057.435791, 4025.128174, 3698.461426, 4068.717773, 3603.076904, 450.000000, 8147.000000, 8349.000000, 0.000000, 0.000000, 0.000000, 1.000000, 119.000000, 1557649290.556014, 4.000000, 4.000000, 4.000000, 0.000000, 4.000000
90.000000, 0.000000, 4054.358887, 4033.333252, 3685.128174, 4070.769043, 3608.205078, 450.000000, 8147.000000, 8349.000000, 0.000000, 0.000000, 0.000000, 1.000000, 126.700012, 1557649290.563714, 4.000000, 4.000000, 4.000000, 0.000000, 4.000000
91.000000, 0.000000, 4055.384521, 4043.076904, 3682.051270, 4062.563965, 3609.230713, 16195.000000, 8152.000000, 8342.000000, 0.000000, 0.000000, 0.000000, 1.000000, 134.600037, 1557649290.571614, 4.000000, 4.000000, 4.000000, 0.000000, 4.000000
92.000000, 0.000000, 4068.205078, 4058.974365, 3707.179443, 4071.794678, 3622.051270, 450.000000, 8147.000000, 8345.000000, 0.000000, 0.000000, 0.000000, 1.000000, 142.500000, 1557649290.579514, 4.000000, 4.000000, 4.000000, 0.000000, 4.000000
93.000000, 0.000000, 4090.256348, 4087.692139, 3737.435791, 4075.897217, 3642.563965, 450.000000, 8147.000000, 8353.000000, 0.000000, 0.000000, 0.000000, 1.000000, 150.400024, 1557649290.587414, 4.000000, 4.000000, 4.000000, 0.000000, 4.000000
94.000000, 0.000000, 4090.769043, 4091.794678, 3735.897461, 4065.640869, 3645.640869, 450.000000, 8154.000000, 8347.000000, 0.000000, 0.000000, 0.000000, 1.000000, 158.400024, 1557649290.595414, 4.000000, 4.000000, 4.000000, 0.000000, 4.000000
95.000000, 0.000000, 4072.820313, 4074.358887, 3723.076904, 4066.153809, 3633.333252, 16195.000000, 8150.000000, 8339.000000, 0.000000, 0.000000, 0.000000, 1.000000, 166.300049, 1557649290.603314, 4.000000, 4.000000, 4.000000, 0.000000, 4.000000
96.000000, 0.000000, 4075.897217, 4089.743408, 3726.666504, 4069.230713, 3632.307617, 450.000000, 8154.000000, 8350.000000, 0.000000, 0.000000, 0.000000, 1.000000, 174.300049, 1557649290.611314, 4.000000, 4.000000, 4.000000, 0.000000, 4.000000
97.000000, 0.000000, 4079.487061, 4110.769043, 3723.589600, 4067.179443, 3638.461426, 450.000000, 8152.000000, 8349.000000, 0.000000, 0.000000, 0.000000, 1.000000, 182.000000, 1557649290.619014, 4.000000, 4.000000, 4.000000, 0.000000, 4.000000
98.000000, 0.000000, 4064.102539, 4109.743652, 3712.820313, 4073.333252, 3637.435791, 450.000000, 8153.000000, 8347.000000, 0.000000, 0.000000, 0.000000, 1.000000, 189.700012, 1557649290.626714, 4.000000, 4.000000, 4.000000, 0.000000, 4.000000
99.000000, 0.000000, 4072.307617, 4124.615234, 3721.538330, 4070.256348, 3648.205078, 16195.000000, 8151.000000, 8347.000000, 0.000000, 0.000000, 0.000000, 1.000000, 197.600037, 1557649290.634614, 4.000000, 4.000000, 4.000000, 0.000000, 4.000000
100.000000, 0.000000, 4093.845947, 4140.512695, 3722.051270, 4057.948730, 3663.076904, 450.000000, 8148.000000, 8341.000000, 0.000000, 0.000000, 0.000000, 1.000000, 205.500000, 1557649290.642514, 4.000000, 4.000000, 4.000000, 0.000000, 4.000000
101.000000, 0.000000, 4091.281982, 4142.563965, 3709.743408, 4069.743408, 3662.563965, 450.000000, 8152.000000, 8349.000000, 0.000000, 0.000000, 0.000000, 1.000000, 213.500000, 1557649290.650514, 4.000000, 4.000000, 4.000000, 0.000000, 4.000000
102.000000, 0.000000, 4086.666504, 4154.871582, 3715.897461, 4078.461426, 3663.589600, 450.000000, 8153.000000, 8356.000000, 0.000000, 0.000000, 0.000000, 1.000000, 221.400024, 1557649290.658414, 4.000000, 4.000000, 4.000000, 0.000000, 4.000000
103.000000, 0.000000, 4092.307617, 4152.307617, 3719.487061, 4062.051270, 3663.076904, 16195.000000, 8148.000000, 8354.000000, 0.000000, 0.000000, 0.000000, 1.000000, 229.400024, 1557649290.666414, 4.000000, 4.000000, 4.000000, 0.000000, 4.000000
104.000000, 0.000000, 4092.307617, 4146.666504, 3711.281982, 4061.025635, 3658.461426, 450.000000, 8144.000000, 8346.000000, 0.000000, 0.000000, 0.000000, 1.000000, 237.300049, 1557649290.674314, 4.000000, 4.000000, 4.000000, 0.000000, 4.000000
105.000000, 0.000000, 4095.897217, 4186.666504, 3723.076904, 4075.384521, 3673.845947, 450.000000, 8138.000000, 8345.000000, 0.000000, 0.000000, 0.000000, 1.000000, 245.200012, 1557649290.682214, 4.000000, 4.000000, 4.000000, 0.000000, 4.000000
106.000000, 0.000000, 4094.871582, 4208.717773, 3728.717773, 4077.435791, 3692.307617, 450.000000, 8139.000000, 8357.000000, 0.000000, 0.000000, 0.000000, 1.000000, 253.000000, 1557649290.690014, 4.000000, 4.000000, 4.000000, 0.000000, 4.000000
107.000000, 0.000000, 4082.051270, 4183.076660, 3702.051270, 4074.871582, 3682.563965, 16195.000000, 8140.000000, 8357.000000, 0.000000, 0.000000, 0.000000, 1.000000, 260.700012, 1557649290.697714, 4.000000, 4.000000, 4.000000, 0.000000, 4.000000
108.000000, 0.000000, 4088.205078, 4180.512695, 3685.640869, 4077.948730, 3673.845947, 450.000000, 8145.000000, 8351.000000, 0.000000, 0.000000, 0.000000, 1.000000, 268.500000, 1557649290.705514, 4.000000, 4.000000, 4.000000, 0.000000, 4.000000
109.000000, 0.000000, 4105.641113, 4198.974121, 3694.871826, 4075.384521, 3680.512695, 450.000000, 8140.000000, 8354.000000, 0.000000, 0.000000, 0.000000, 1.000000, 276.400024, 1557649290.713414, 4.000000, 4.000000, 4.000000, 0.000000, 4.000000
110.000000, 0.000000, 4107.692383, 4208.717773, 3704.102539, 4067.692139, 3686.153809, 450.000000, 8142.000000, 8359.000000, 0.000000, 0.000000, 0.000000, 1.000000, 284.400024, 1557649290.721414, 4.000000, 4.000000, 4.000000, 0.000000, 4.000000
111.000000, 0.000000, 4107.179199, 4221.025391, 3701.538330, 4072.820313, 3695.897461, 16195.000000, 8138.000000, 8354.000000, 0.000000, 0.000000, 0.000000, 1.000000, 292.300049, 1557649290.729314, 4.000000, 4.000000, 4.000000, 0.000000, 4.000000
112.000000, 0.000000, 4117.948730, 4229.230469, 3702.563965, 4090.769043, 3712.820313, 450.000000, 8140.000000, 8355.000000, 0.000000, 0.000000, 0.000000, 1.000000, 300.000000, 1557649290.737014, 4.000000, 4.000000, 4.000000, 0.000000, 4.000000
113.000000, 0.000000, 4137.436035, 4240.512695, 3724.615234, 4095.897217, 3738.461426, 450.000000, 8142.000000, 8354.000000, 0.000000, 0.000000, 0.000000, 1.000000, 307.800049, 1557649290.744814, 4.000000, 4.000000, 4.000000, 0.000000, 4.000000
114.000000, 0.000000, 4147.692383, 4262.051270, 3744.615234, 4082.563965, 3759.487061, 450.000000, 8138.000000, 8356.000000, 0.000000, 0.000000, 0.000000, 1.000000, 315.700024, 1557649290.752714, 4.000000, 4.000000, 4.000000, 0.000000, 4.000000
115.000000, 0.000000, 4131.281738, 4266.153809, 3724.102539, 4069.743408, 3747.692139, 16195.000000, 8139.000000, 8357.000000, 0.000000, 0.000000, 0.000000, 1.000000, 323.600024, 1557649290.760614, 4.000000, 4.000000, 4.000000, 0.000000, 4.000000
116.000000, 0.000000, 4126.153809, 4267.692383, 3702.051270, 4078.974365, 3739.487061, 450.000000, 8137.000000, 8360.000000, 0.000000, 0.000000, 0.000000, 1.000000, 331.400024, 1557649290.768414, 4.000000, 4.000000, 4.000000, 0.000000, 4.000000
117.000000, 0.000000, 4136.922852, 4280.512695, 3708.717773, 4087.692139, 3758.461426, 450.000000, 8141.000000, 8352.000000, 0.000000, 0.000000, 0.000000, 1.000000, 339.400024, 1557649290.776414, 4.000000, 4.000000, 4.000000, 0.000000, 4.000000
118.000000, 0.000000, 4126.153809, 4280.000000, 3710.769043, 4083.076904, 3765.128174, 450.000000, 8143.000000, 8345.000000, 0.000000, 0.000000, 0.000000, 1.000000, 347.300026, 1557649290.784314, 4.000000, 4.000000, 4.000000, 0.000000, 4.000000
119.000000, 0.000000, 4121.538574, 4283.589844, 3712.307617, 4081.025635, 3763.589600, 16195.000000, 8142.000000, 8349.000000, 0.000000, 0.000000, 0.000000, 1.000000, 355.200024, 1557649290.792214, 4.000000, 4.000000, 4.000000, 0.000000, 4.000000
120.000000, 0.000000, 4133.846191, 4291.281738, 3721.538330, 4077.435791, 3770.769043, 450.000000, 8143.000000, 8361.000000, 0.000000, 0.000000, 0.000000, 1.000000, 363.200024, 1557649290.800214, 4.000000, 4.000000, 4.000000, 0.000000, 4.000000
121.000000, 0.000000, 4127.692383, 4284.615234, 3727.692139, 4075.384521, 3778.974365, 450.000000, 8145.000000, 8347.000000, 0.000000, 0.000000, 0.000000, 1.000000, 371.100025, 1557649290.808114, 4.000000, 4.000000, 4.000000, 0.000000, 4.000000
122.000000, 0.000000, 4119.487305, 4284.615234, 3730.769043, 4087.179443, 3783.589600, 450.000000, 8142.000000, 8343.000000, 0.000000, 0.000000, 0.000000, 1.000000, 379.100021, 1557649290.816114, 4.000000, 4.000000, 4.000000, 0.000000, 4.000000
123.000000, 0.000000, 4125.641113, 4297.436035, 3713.333252, 4093.845947, 3777.435791, 16195.000000, 8140.000000, 8357.000000, 0.000000, 0.000000, 0.000000, 1.000000, 386.800026, 1557649290.823814, 4.000000, 4.000000, 4.000000, 0.000000, 4.000000
124.000000, 0.000000, 4136.410156, 4314.871582, 3702.051270, 4087.692139, 3789.230713, 450.000000, 8141.000000, 8354.000000, 0.000000, 0.000000, 0.000000, 1.000000, 394.500023, 1557649290.831514, 4.000000, 4.000000, 4.000000, 0.000000, 4.000000
125.000000, 0.000000, 4158.974121, 4349.230469, 3737.948730, 4091.281982, 3833.333252, 450.000000, 8139.000000, 8353.000000, 0.000000, 0.000000, 0.000000, 1.000000, 402.500023, 1557649290.839514, 4.000000, 4.000000, 4.000000, 0.000000, 4.000000
126.000000, 0.000000, 4172.307617, 4364.102539, 3766.666504, 4097.948730, 3846.153809, 450.000000, 8144.000000, 8354.000000, 0.000000, 0.000000, 0.000000, 1.000000, 410.400024, 1557649290.847414, 4.000000, 4.000000, 4.000000, 0.000000, 4.000000
127.000000, 0.000000, 4163.589844, 4340.000000, 3761.538330, 4092.820313, 3823.076904, 16195.000000, 8140.000000, 8353.000000, 0.000000, 0.000000, 0.000000, 1.000000, 418.400024, 1557649290.855414, 4.000000, 4.000000, 4.000000, 0.000000, 4.000000
128.000000, 0.000000, 4165.127930, 4347.179199, 3783.076904, 4089.743408, 3831.794678, 500.000000, 8140.000000, 8354.000000, 0.000000, 0.000000, 0.000000, 1.000000, 426.300026, 1557649290.863314, 4.000000, 4.000000, 4.000000, 0.000000, 4.000000
0.000000, 0.000000, 4172.307617, 4384.102539, 3808.717773, 4092.307617, 3855.384521, 500.000000, 8138.000000, 8354.000000, 0.000000, 0.000000, 0.000000, 1.000000, 434.300026, 1557649290.871314, 4.000000, 4.000000, 4.000000, 0.000000, 4.000000
1.000000, 0.000000, 4180.000000, 4394.358887, 3807.179443, 4097.948730, 3863.076904, 500.000000, 8146.000000, 8352.000000, 0.000000, 0.000000, 0.000000, 1.000000, 442.200027, 1557649290.879214, 4.000000, 4.000000, 4.000000, 0.000000, 4.000000
2.000000, 0.000000, 4186.153809, 4382.563965, 3796.410156, 4094.871582, 3859.487061, 16195.000000, 8137.000000, 8348.000000, 0.000000, 0.000000, 0.000000, 1.000000, 449.900024, 1557649290.886914, 4.000000, 4.000000, 4.000000, 0.000000, 4.000000
3.000000, 0.000000, 4171.794922, 4370.769043, 3770.769043, 4084.615234, 3845.640869, 500.000000, 8134.000000, 8355.000000, 0.000000, 0.000000, 0.000000, 1.000000, 457.700027, 1557649290.894714, 4.000000, 4.000000, 4.000000, 0.000000, 4.000000
4.000000, 0.000000, 4167.179199, 4387.179199, 3758.461426, 4089.230713, 3852.820313, 16148.000000, 8141.000000, 8361.000000, 0.000000, 0.000000, 0.000000, 1.000000, 465.600021, 1557649290.902614, 4.000000, 4.000000, 4.000000, 0.000000, 4.000000
5.000000, 0.000000, 4191.794922, 4411.794922, 3790.769043, 4096.410156, 3885.640869, 500.000000, 8142.000000, 8343.000000, 0.000000, 0.000000, 0.000000, 1.000000, 473.600021, 1557649290.910614, 4.000000, 4.000000, 4.000000, 0.000000, 4.000000
6.000000, 0.000000, 4200.512695, 4408.205078, 3805.640869, 4097.436035, 3895.897461, 16155.000000, 8138.000000, 8347.000000, 0.000000, 0.000000, 0.000000, 1.000000, 481.500031, 1557649290.918514, 4.000000, 4.000000, 4.000000, 0.000000, 4.000000
7.000000, 0.000000, 4187.179199, 4407.179199, 3778.974365, 4104.615234, 3889.743408, 500.000000, 8132.000000, 8359.000000, 0.000000, 0.000000, 0.000000, 1.000000, 489.500031, 1557649290.926514, 4.000000, 4.000000, 4.000000, 0.000000, 4.000000
8.000000, 0.000000, 4183.076660, 4417.948730, 3770.769043, 4103.076660, 3890.769043, 500.000000, 8139.000000, 8364.000000, 0.000000, 0.000000, 0.000000, 1.000000, 497.400024, 1557649290.934414, 4.000000, 4.000000, 4.000000, 0.000000, 4.000000
9.000000, 0.000000, 4182.563965, 4410.769043, 3787.179443, 4089.743408, 3888.717773, 7.000000, 8139.000000, 8355.000000, 0.000000, 0.000000, 0.000000, 1.000000, 505.300018, 1557649290.942314, 4.000000, 4.000000, 4.000000, 0.000000, 4.000000
10.000000, 0.000000, 4190.769043, 4415.384277, 3785.128174, 4090.769043, 3904.102539, 500.000000, 8138.000000, 8360.000000, 0.000000, 0.000000, 0.000000, 1.000000, 513.100021, 1557649290.950114, 4.000000, 4.000000, 4.000000, 0.000000, 4.000000
11.000000, 0.000000, 4204.615234, 4445.127930, 3772.307617, 4105.641113, 3928.205078, 16189.000000, 8140.000000, 8351.000000, 0.000000, 0.000000, 0.000000, 1.000000, 520.800018, 1557649290.957814, 4.000000, 4.000000, 4.000000, 0.000000, 4.000000
12.000000, 0.000000, 4202.563965, 4449.743652, 3766.666504, 4105.127930, 3928.205078, 500.000000, 8138.000000, 8352.000000, 0.000000, 0.000000, 0.000000, 1.000000, 528.600021, 1557649290.965614, 4.000000, 4.000000, 4.000000, 0.000000, 4.000000
13.000000, 0.000000, 4205.127930, 4448.205078, 3775.384521, 4093.333252, 3933.333252, 500.000000, 8139.000000, 8356.000000, 0.000000, 0.000000, 0.000000, 1.000000, 536.500031, 1557649290.973514, 4.000000, 4.000000, 4.000000, 0.000000, 4.000000
14.000000, 0.000000, 4237.948730, 4471.794922, 3801.025635, 4105.127930, 3967.692139, 450.000000, 8149.000000, 8351.000000, 0.000000, 0.000000, 0.000000, 1.000000, 544.500031, 1557649290.981514, 4.000000, 4.000000, 4.000000, 0.000000, 4.000000
15.000000, 0.000000, 4258.974121, 4480.512695, 3814.358887, 4124.102539, 3984.615234, 16189.000000, 8144.000000, 8350.000000, 0.000000, 0.000000, 0.000000, 1.000000, 552.400024, 1557649290.989414, 4.000000, 4.000000, 4.000000, 0.000000, 4.000000
16.000000, 0.000000, 4235.384277, 4467.692383, 3802.563965, 4113.333008, 3963.589600, 0.000000, 8137.000000, 8359.000000, 0.000000, 0.000000, 0.000000, 1.000000, 560.300018, 1557649290.997314, 4.000000, 4.000000, 4.000000, 0.000000, 4.000000
17.000000, 0.000000, 4212.820313, 4464.615234, 3804.102539, 4095.384521, 3954.871582, 0.000000, 8148.000000, 8361.000000, 0.000000, 0.000000, 0.000000, 1.000000, 568.300018, 1557649291.005314, 4.000000, 4.000000, 4.000000, 0.000000, 4.000000
18.000000, 0.000000, 4235.897461, 4488.205078, 3836.410156, 4103.076660, 3982.563965, 0.000000, 8150.000000, 8345.000000, 0.000000, 0.000000, 0.000000, 1.000000, 576.000031, 1557649291.013014, 4.000000, 4.000000, 4.000000, 0.000000, 4.000000
19.000000, 0.000000, 4253.333008, 4494.358887, 3844.615234, 4107.692383, 3998.974365, 0.000000, 8153.000000, 8345.000000, 0.000000, 0.000000, 0.000000, 1.000000, 583.800018, 1557649291.020814, 4.000000, 4.000000, 4.000000, 0.000000, 4.000000
20.000000, 0.000000, 4230.256348, 4467.179199, 3809.230713, 4089.743408, 3973.845947, 0.000000, 8148.000000, 8355.000000, 0.000000, 0.000000, 0.000000, 1.000000, 591.500031, 1557649291.028514, 4.000000, 4.000000, 4.000000, 0.000000, 4.000000
21.000000, 0.000000, 4226.153809, 4475.384277, 3802.563965, 4098.974121, 3972.307617, 0.000000, 8150.000000, 8360.000000, 0.000000, 0.000000, 0.000000, 1.000000, 599.500031, 1557649291.036514, 4.000000, 4.000000, 4.000000, 0.000000, 4.000000
22.000000, 0.000000, 4251.794922, 4510.769043, 3827.692139, 4125.641113, 4009.743408, 0.000000, 8149.000000, 8349.000000, 0.000000, 0.000000, 0.000000, 1.000000, 607.400024, 1557649291.044414, 4.000000, 4.000000, 4.000000, 0.000000, 4.000000
23.000000, 0.000000, 4251.794922, 4505.641113, 3826.666504, 4114.358887, 4014.358887, 0.000000, 8141.000000, 8352.000000, 0.000000, 0.000000, 0.000000, 1.000000, 615.300018, 1557649291.052314, 4.000000, 4.000000, 4.000000, 0.000000, 4.000000
24.000000, 0.000000, 4241.025391, 4493.846191, 3807.692139, 4101.025391, 4001.538330, 0.000000, 8142.000000, 8353.000000, 0.000000, 0.000000, 0.000000, 1.000000, 623.300018, 1557649291.060314, 4.000000, 4.000000, 4.000000, 0.000000, 4.000000
25.000000, 0.000000, 4248.205078, 4516.410156, 3811.794678, 4114.871582, 4024.102539, 0.000000, 8149.000000, 8358.000000, 0.000000, 0.000000, 0.000000, 1.000000, 631.200012, 1557649291.068214, 4.000000, 4.000000, 4.000000, 0.000000, 4.000000
26.000000, 0.000000, 4249.743652, 4518.461426, 3821.025635, 4122.563965, 4034.871582, 0.000000, 8138.000000, 8360.000000, 0.000000, 0.000000, 0.000000, 1.000000, 639.200012, 1557649291.076214, 4.000000, 4.000000, 4.000000, 0.000000, 4.000000
27.000000, 0.000000, 4244.102539, 4502.563965, 3815.897461, 4107.179199, 4008.717773, 0.000000, 8141.000000, 8356.000000, 0.000000, 0.000000, 0.000000, 1.000000, 646.900024, 1557649291.083914, 4.000000, 4.000000, 4.000000, 0.000000, 4.000000
28.000000, 0.000000, 4243.076660, 4511.281738, 3821.025635, 4092.820313, 4006.666504, 0.000000, 8143.000000, 8355.000000, 0.000000, 0.000000, 0.000000, 1.000000, 654.700012, 1557649291.091714, 4.000000, 4.000000, 4.000000, 0.000000, 4.000000
29.000000, 0.000000, 4243.589844, 4518.974121, 3833.845947, 4104.102539, 4027.692139, 0.000000, 8140.000000, 8366.000000, 0.000000, 0.000000, 0.000000, 1.000000, 662.600037, 1557649291.099614, 4.000000, 4.000000, 4.000000, 0.000000, 4.000000
30.000000, 0.000000, 4253.333008, 4521.538574, 3836.410156, 4117.436035, 4033.845947, 0.000000, 8137.000000, 8371.000000, 0.000000, 0.000000, 0.000000, 1.000000, 670.400024, 1557649291.107414, 4.000000, 4.000000, 4.000000, 0.000000, 4.000000
31.000000, 0.000000, 4264.102539, 4537.435547, 3836.923096, 4112.307617, 4038.974365, 0.000000, 8136.000000, 8358.000000, 0.000000, 0.000000, 0.000000, 1.000000, 678.400024, 1557649291.115414, 4.000000, 4.000000, 4.000000, 0.000000, 4.000000
32.000000, 0.000000, 4272.307617, 4552.307617, 3847.692139, 4112.307617, 4056.410156, 0.000000, 8132.000000, 8364.000000, 0.000000, 0.000000, 0.000000, 1.000000, 686.300018, 1557649291.123314, 4.000000, 4.000000, 4.000000, 0.000000, 4.000000
33.000000, 0.000000, 4274.871582, 4546.666504, 3851.281982, 4123.589844, 4064.102539, 0.000000, 8130.000000, 8374.000000, 0.000000, 0.000000, 0.000000, 1.000000, 694.300018, 1557649291.131314, 4.000000, 4.000000, 4.000000, 0.000000, 4.000000
34.000000, 0.000000, 4272.307617, 4539.487305, 3840.512695, 4118.461426, 4063.589600, 0.000000, 8132.000000, 8375.000000, 0.000000, 0.000000, 0.000000, 1.000000, 702.200012, 1557649291.139214, 4.000000, 4.000000, 4.000000, 0.000000, 4.000000
35.000000, 0.000000, 4264.102539, 4536.410156, 3825.640869, 4101.025391, 4062.563965, 0.000000, 8136.000000, 8368.000000, 0.000000, 0.000000, 0.000000, 1.000000, 709.900024, 1557649291.146914, 4.000000, 4.000000, 4.000000, 0.000000, 4.000000
36.000000, 0.000000, 4254.358887, 4530.256348, 3819.487061, 4100.000000, 4055.897217, 0.000000, 8134.000000, 8369.000000, 0.000000, 0.000000, 0.000000, 1.000000, 717.700012, 1557649291.154714, 4.000000, 4.000000, 4.000000, 0.000000, 4.000000
37.000000, 0.000000, 4254.358887, 4546.153809, 3838.461426, 4105.127930, 4062.563965, 0.000000, 8134.000000, 8371.000000, 0.000000, 0.000000, 0.000000, 1.000000, 725.600037, 1557649291.162614, 4.000000, 4.000000, 4.000000, 0.000000, 4.000000
38.000000, 0.000000, 4262.563965, 4560.000000, 3848.717773, 4105.641113, 4076.410156, 0.000000, 8138.000000, 8368.000000, 0.000000, 0.000000, 0.000000, 1.000000, 733.500031, 1557649291.170514, 4.000000, 4.000000, 4.000000, 0.000000, 4.000000
39.000000, 0.000000, 4270.769043, 4542.563965, 3832.307617, 4102.051270, 4075.897217, 0.000000, 8140.000000, 8365.000000, 0.000000, 0.000000, 0.000000, 1.000000, 741.400024, 1557649291.178414, 4.000000, 4.000000, 4.000000, 0.000000, 4.000000
40.000000, 0.000000, 4284.102539, 4537.435547, 3837.948730, 4100.512695, 4078.974365, 0.000000, 8141.000000, 8369.000000, 0.000000, 0.000000, 0.000000, 1.000000, 749.400024, 1557649291.186414, 4.000000, 4.000000, 4.000000, 0.000000, 4.000000
41.000000, 0.000000, 4298.461426, 4558.461426, 3863.589600, 4114.871582, 4094.358887, 0.000000, 8151.000000, 8364.000000, 0.000000, 0.000000, 0.000000, 1.000000, 757.300018, 1557649291.194314, 4.000000, 4.000000, 4.000000, 0.000000, 4.000000
42.000000, 0.000000, 4292.307617, 4552.820313, 3874.358887, 4123.076660, 4094.871582, 0.000000, 8154.000000, 8370.000000, 0.000000, 0.000000, 0.000000, 1.000000, 765.200012, 1557649291.202214, 4.000000, 4.000000, 4.000000, 0.000000, 4.000000
43.000000, 0.000000, 4289.743652, 4551.794922, 3890.769043, 4119.487305, 4101.025391, 0.000000, 8155.000000, 8370.000000, 0.000000, 0.000000, 0.000000, 1.000000, 773.200012, 1557649291.210214, 4.000000, 4.000000, 4.000000, 0.000000, 4.000000
44.000000, 0.000000, 4314.358887, 4584.102539, 3920.000000, 4127.179199, 4133.333008, 0.000000, 8160.000000, 8357.000000, 0.000000, 0.000000, 0.000000, 1.000000, 780.900024, 1557649291.217914, 4.000000, 4.000000, 4.000000, 0.000000, 4.000000
45.000000, 0.000000, 4320.512695, 4580.512695, 3920.000000, 4121.538574, 4139.487305, 0.000000, 8170.000000, 8353.000000, 0.000000, 0.000000, 0.000000, 1.000000, 788.700012, 1557649291.225714, 4.000000, 4.000000, 4.000000, 0.000000, 4.000000
46.000000, 0.000000, 4315.897461, 4565.127930, 3904.615234, 4104.102539, 4118.974121, 0.000000, 8167.000000, 8363.000000, 0.000000, 0.000000, 0.000000, 1.000000, 796.500031, 1557649291.233514, 4.000000, 4.000000, 4.000000, 0.000000, 4.000000
47.000000, 0.000000, 4326.153809, 4585.127930, 3906.153809, 4110.769043, 4123.076660, 0.000000, 8171.000000, 8360.000000, 0.000000, 0.000000, 0.000000, 1.000000, 804.500031, 1557649291.241514, 4.000000, 4.000000, 4.000000, 0.000000, 4.000000
48.000000, 0.000000, 4323.589844, 4585.127930, 3921.538330, 4131.794922, 4141.538574, 0.000000, 8176.000000, 8349.000000, 0.000000, 0.000000, 0.000000, 1.000000, 812.400024, 1557649291.249414, 4.000000, 4.000000, 4.000000, 0.000000, 4.000000
49.000000, 0.000000, 4313.333008, 4561.538574, 3924.102539, 4130.769043, 4138.974121, 0.000000, 8175.000000, 8349.000000, 0.000000, 0.000000, 0.000000, 1.000000, 820.300018, 1557649291.257314, 4.000000, 4.000000, 4.000000, 0.000000, 4.000000
50.000000, 0.000000, 4321.538574, 4572.307617, 3902.051270, 4113.846191, 4126.666504, 0.000000, 8175.000000, 8359.000000, 0.000000, 0.000000, 0.000000, 1.000000, 828.300049, 1557649291.265314, 4.000000, 4.000000, 4.000000, 0.000000, 4.000000
51.000000, 0.000000, 4327.692383, 4600.000000, 3897.435791, 4108.205078, 4136.410156, 0.000000, 8182.000000, 8363.000000, 0.000000, 0.000000, 0.000000, 1.000000, 836.200012, 1557649291.273214, 4.000000, 4.000000, 4.000000, 0.000000, 4.000000
52.000000, 0.000000, 4320.000000, 4594.871582, 3912.820313, 4106.666504, 4153.846191, 0.000000, 8180.000000, 8355.000000, 0.000000, 0.000000, 0.000000, 1.000000, 844.000000, 1557649291.281014, 4.000000, 4.000000, 4.000000, 0.000000, 4.000000
53.000000, 0.000000, 4321.538574, 4580.000000, 3905.640869, 4099.487305, 4153.333008, 0.000000, 8169.000000, 8356.000000, 0.000000, 0.000000, 0.000000, 1.000000, 851.700012, 1557649291.288714, 4.000000, 4.000000, 4.000000, 0.000000, 4.000000
54.000000, 0.000000, 4326.666504, 4591.281738, 3892.307617, 4100.000000, 4154.871582, 0.000000, 8173.000000, 8352.000000, 0.000000, 0.000000, 0.000000, 1.000000, 859.500000, 1557649291.296514, 4.000000, 4.000000, 4.000000, 0.000000, 4.000000
55.000000, 0.000000, 4325.127930, 4601.025391, 3891.794678, 4113.333008, 4168.205078, 0.000000, 8176.000000, 8352.000000, 0.000000, 0.000000, 0.000000, 1.000000, 867.400024, 1557649291.304414, 4.000000, 4.000000, 4.000000, 0.000000, 4.000000
56.000000, 0.000000, 4326.666504, 4587.692383, 3878.974365, 4113.333008, 4167.692383, 0.000000, 8172.000000, 8368.000000, 0.000000, 0.000000, 0.000000, 1.000000, 875.300049, 1557649291.312314, 4.000000, 4.000000, 4.000000, 0.000000, 4.000000
57.000000, 0.000000, 4326.666504, 4577.948730, 3865.128174, 4101.025391, 4153.846191, 0.000000, 8169.000000, 8351.000000, 0.000000, 0.000000, 0.000000, 1.000000, 883.300049, 1557649291.320314, 4.000000, 4.000000, 4.000000, 0.000000, 4.000000
58.000000, 0.000000, 4332.820313, 4596.410156, 3874.358887, 4119.487305, 4166.666504, 0.000000, 8174.000000, 8350.000000, 0.000000, 0.000000, 0.000000, 1.000000, 891.200012, 1557649291.328214, 4.000000, 4.000000, 4.000000, 0.000000, 4.000000
59.000000, 0.000000, 4340.000000, 4612.820313, 3882.051270, 4142.563965, 4193.333008, 0.000000, 8173.000000, 8361.000000, 0.000000, 0.000000, 0.000000, 1.000000, 899.200012, 1557649291.336214, 4.000000, 4.000000, 4.000000, 0.000000, 4.000000
60.000000, 0.000000, 4334.358887, 4606.666504, 3883.076904, 4123.076660, 4201.025391, 0.000000, 8173.000000, 8358.000000, 0.000000, 0.000000, 0.000000, 1.000000, 907.100037, 1557649291.344114, 4.000000, 4.000000, 4.000000, 0.000000, 4.000000
61.000000, 0.000000, 4329.743652, 4600.000000, 3892.307617, 4102.051270, 4205.127930, 0.000000, 8171.000000, 8347.000000, 0.000000, 0.000000, 0.000000, 1.000000, 914.900024, 1557649291.351914, 4.000000, 4.000000, 4.000000, 0.000000, 4.000000
62.000000, 0.000000, 4343.076660, 4607.179199, 3911.281982, 4118.461426, 4213.333008, 0.000000, 8161.000000, 8344.000000, 0.000000, 0.000000, 0.000000, 1.000000, 922.600037, 1557649291.359614, 4.000000, 4.000000, 4.000000, 0.000000, 4.000000
63.000000, 0.000000, 4361.025391, 4622.563965, 3943.589600, 4138.974121, 4222.563965, 0.000000, 8157.000000, 8353.000000, 0.000000, 0.000000, 0.000000, 1.000000, 930.400024, 1557649291.367414, 4.000000, 4.000000, 4.000000, 0.000000, 4.000000
64.000000, 0.000000, 4358.974121, 4625.641113, 3962.051270, 4136.410156, 4228.205078, 500.000000, 8157.000000, 8355.000000, 0.000000, 0.000000, 0.000000, 1.000000, 938.400024, 1557649291.375414, 4.000000, 4.000000, 4.000000, 0.000000, 4.000000
65.000000, 0.000000, 4353.846191, 4623.589844, 3950.769043, 4128.717773, 4232.820313, 500.000000, 8151.000000, 8349.000000, 0.000000, 0.000000, 0.000000, 1.000000, 946.300049, 1557649291.383314, 4.000000, 4.000000, 4.000000, 0.000000, 4.000000
66.000000, 0.000000, 4366.666504, 4629.743652, 3943.589600, 4123.076660, 4238.974121, 16192.000000, 8155.000000, 8355.000000, 0.000000, 0.000000, 0.000000, 1.000000, 954.300049, 1557649291.391314, 4.000000, 4.000000, 4.000000, 0.000000, 4.000000
67.000000, 0.000000, 4364.615234, 4616.922852, 3938.461426, 4115.897461, 4228.717773, 500.000000, 8147.000000, 8351.000000, 0.000000, 0.000000, 0.000000, 1.000000, 962.200012, 1557649291.399214, 4.000000, 4.000000, 4.000000, 0.000000, 4.000000
68.000000, 0.000000, 4343.589844, 4597.948730, 3924.615234, 4120.000000, 4217.948730, 16148.000000, 8151.000000, 8356.000000, 0.000000, 0.000000, 0.000000, 1.000000, 970.200012, 1557649291.407214, 4.000000, 4.000000, 4.000000, 0.000000, 4.000000
69.000000, 0.000000, 4341.025391, 4602.563965, 3926.666504, 4125.127930, 4224.102539, 500.000000, 8149.000000, 8354.000000, 0.000000, 0.000000, 0.000000, 1.000000, 977.900024, 1557649291.414914, 4.000000, 4.000000, 4.000000, 0.000000, 4.000000
70.000000, 0.000000, 4354.358887, 4614.871582, 3947.692139, 4121.025391, 4234.871582, 16155.000000, 8155.000000, 8350.000000, 0.000000, 0.000000, 0.000000, 1.000000, 985.600037, 1557649291.422614, 4.000000, 4.000000, 4.000000, 0.000000, 4.000000
71.000000, 0.000000, 4364.102539, 4626.666504, 3965.128174, 4130.256348, 4251.281738, 500.000000, 8148.000000, 8343.000000, 0.000000, 0.000000, 0.000000, 1.000000, 993.500000, 1557649291.430514, 4.000000, 4.000000, 4.000000, 0.000000, 4.000000
72.000000, 0.000000, 4370.256348, 4632.307617, 3963.076904, 4140.000000, 4272.307617, 500.000000, 8147.000000, 8355.000000, 0.000000, 0.000000, 0.000000, 2.000000, 1.400024, 1557649291.438414, 4.000000, 4.000000, 4.000000, 0.000000, 4.000000
73.000000, 0.000000, 4347.692383, 4601.025391, 3944.615234, 4111.281738, 4252.307617, 4.000000, 8138.000000, 8360.000000, 0.000000, 0.000000, 0.000000, 2.000000, 9.400024, 1557649291.446414, 4.000000, 4.000000, 4.000000, 0.000000, 4.000000
74.000000, 0.000000, 4321.538574, 4578.974121, 3933.333252, 4098.461426, 4219.487305, 500.000000, 8139.000000, 8349.000000, 0.000000, 0.000000, 0.000000, 2.000000, 17.300049, 1557649291.454314, 4.000000, 4.000000, 4.000000, 0.000000, 4.000000
75.000000, 0.000000, 4352.307617, 4613.333008, 3954.358887, 4135.384277, 4246.666504, 16187.000000, 8133.000000, 8346.000000, 0.000000, 0.000000, 0.000000, 2.000000, 25.300049, 1557649291.462314, 4.000000, 4.000000, 4.000000, 0.000000, 4.000000
76.000000, 0.000000, 4374.871582, 4634.871582, 3973.845947, 4144.615234, 4278.461426, 500.000000, 8134.000000, 8359.000000, 0.000000, 0.000000, 0.000000, 2.000000, 33.200012, 1557649291.470214, 4.000000, 4.000000, 4.000000, 0.000000, 4.000000
77.000000, 0.000000, 4344.102539, 4619.487305, 3962.563965, 4121.025391, 4265.127930, 500.000000, 8134.000000, 8355.000000, 0.000000, 0.000000, 0.000000, 2.000000, 40.900024, 1557649291.477914, 4.000000, 4.000000, 4.000000, 0.000000, 4.000000
78.000000, 0.000000, 4335.384277, 4620.512695, 3954.358887, 4117.436035, 4258.461426, 450.000000, 8132.000000, 8346.000000, 0.000000, 0.000000, 0.000000, 2.000000, 48.700012, 1557649291.485714, 4.000000, 4.000000, 4.000000, 0.000000, 4.000000
79.000000, 0.000000, 4358.461426, 4627.692383, 3962.051270, 4121.538574, 4271.281738, 16187.000000, 8122.000000, 8347.000000, 0.000000, 0.000000, 0.000000, 2.000000, 56.500000, 1557649291.493514, 4.000000, 4.000000, 4.000000, 0.000000, 4.000000
80.000000, 0.000000, 4355.384277, 4613.333008, 3955.897461, 4128.717773, 4269.230469, 450.000000, 8129.000000, 8344.000000, 0.000000, 0.000000, 0.000000, 2.000000, 64.500000, 1557649291.501514, 4.000000, 4.000000, 4.000000, 0.000000, 4.000000
81.000000, 0.000000, 4341.538574, 4600.512695, 3936.923096, 4137.436035, 4254.871582, 450.000000, 8126.000000, 8338.000000, 0.000000, 0.000000, 0.000000, 2.000000, 72.400024, 1557649291.509414, 4.000000, 4.000000, 4.000000, 0.000000, 4.000000
82.000000, 0.000000, 4344.615234, 4607.692383, 3942.051270, 4130.256348, 4249.230469, 450.000000, 8126.000000, 8339.000000, 0.000000, 0.000000, 0.000000, 2.000000, 80.400024, 1557649291.517414, 4.000000, 4.000000, 4.000000, 0.000000, 4.000000
83.000000, 0.000000, 4342.563965, 4613.846191, 3945.128174, 4124.615234, 4248.205078, 16187.000000, 8122.000000, 8346.000000, 0.000000, 0.000000, 0.000000, 2.000000, 88.300049, 1557649291.525314, 4.000000, 4.000000, 4.000000, 0.000000, 4.000000
84.000000, 0.000000, 4339.487305, 4606.153809, 3926.153809, 4135.384277, 4251.794922, 450.000000, 8123.000000, 8342.000000, 0.000000, 0.000000, 0.000000, 2.000000, 96.200012, 1557649291.533214, 4.000000, 4.000000, 4.000000, 0.000000, 4.000000
85.000000, 0.000000, 4351.281738, 4598.461426, 3936.923096, 4138.974121, 4262.051270, 450.000000, 8118.000000, 8331.000000, 0.000000, 0.000000, 0.000000, 2.000000, 104.000000, 1557649291.541014, 4.000000, 4.000000, 4.000000, 0.000000, 4.000000
86.000000, 0.000000, 4361.538574, 4601.025391, 3960.512695, 4129.230469, 4272.820313, 450.000000, 8118.000000, 8347.000000, 0.000000, 0.000000, 0.000000, 2.000000, 111.700012, 1557649291.548714, 4.000000, 4.000000, 4.000000, 0.000000, 4.000000
87.000000, 0.000000, 4345.641113, 4602.051270, 3941.025635, 4123.589844, 4264.615234, 16187.000000, 8130.000000, 8338.000000, 0.000000, 0.000000, 0.000000, 2.000000, 119.500000, 1557649291.556514, 4.000000, 4.000000, 4.000000, 0.000000, 4.000000
88.000000, 0.000000, 4333.333008, 4608.717773, 3924.615234, 4128.205078, 4255.384277, 450.000000, 8126.000000, 8340.000000, 0.000000, 0.000000, 0.000000, 2.000000, 127.400024, 1557649291.564414, 4.000000, 4.000000, 4.000000, 0.000000, 4.000000
89.000000, 0.000000, 4355.897461, 4628.717773, 3946.666504, 4140.512695, 4274.871582, 450.000000, 8130.000000, 8347.000000, 0.000000, 0.000000, 0.000000, 2.000000, 135.400024, 1557649291.572414, 4.000000, 4.000000, 4.000000, 0.000000, 4.000000
90.000000, 0.000000, 4372.820313, 4631.794922, 3954.871582, 4145.127930, 4291.281738, 450.000000, 8140.000000, 8345.000000, 0.000000, 0.000000, 0.000000, 2.000000, 143.300049, 1557649291.580314, 4.000000, 4.000000, 4.000000, 0.000000, 4.000000
91.000000, 0.000000, 4358.974121, 4622.563965, 3935.897461, 4133.846191, 4283.589844, 16187.000000, 8139.000000, 8335.000000, 0.000000, 0.000000, 0.000000, 2.000000, 151.200012, 1557649291.588214, 4.000000, 4.000000, 4.000000, 0.000000, 4.000000
92.000000, 0.000000, 4339.487305, 4618.974121, 3920.000000, 4123.589844, 4269.743652, 450.000000, 8144.000000, 8334.000000, 0.000000, 0.000000, 0.000000, 2.000000, 159.200012, 1557649291.596214, 4.000000, 4.000000, 4.000000, 0.000000, 4.000000
93.000000, 0.000000, 4338.974121, 4623.589844, 3921.538330, 4128.205078, 4270.256348, 450.000000, 8143.000000, 8341.000000, 0.000000, 0.000000, 0.000000, 2.000000, 167.100037, 1557649291.604114, 4.000000, 4.000000, 4.000000, 0.000000, 4.000000
94.000000, 0.000000, 4349.230469, 4634.358887, 3938.974365, 4140.512695, 4271.794922, 450.000000, 8156.000000, 8337.000000, 0.000000, 0.000000, 0.000000, 2.000000, 174.900024, 1557649291.611914, 4.000000, 4.000000, 4.000000, 0.000000, 4.000000
95.000000, 0.000000, 4345.641113, 4626.666504, 3934.871582, 4138.461426, 4262.563965, 16187.000000, 8153.000000, 8335.000000, 0.000000, 0.000000, 0.000000, 2.000000, 182.600037, 1557649291.619614, 4.000000, 4.000000, 4.000000, 0.000000, 4.000000
96.000000, 0.000000, 4334.871582, 4620.000000, 3924.615234, 4122.051270, 4273.333008, 450.000000, 8147.000000, 8336.000000, 0.000000, 0.000000, 0.000000, 2.000000, 190.600037, 1557649291.627614, 4.000000, 4.000000, 4.000000, 0.000000, 4.000000
97.000000, 0.000000, 4346.666504, 4644.615234, 3949.743408, 4121.538574, 4302.051270, 450.000000, 8150.000000, 8330.000000, 0.000000, 0.000000, 0.000000, 2.000000, 198.500000, 1557649291.635514, 4.000000, 4.000000, 4.000000, 0.000000, 4.000000
98.000000, 0.000000, 4364.102539, 4656.410156, 3972.307617, 4135.384277, 4306.666504, 450.000000, 8155.000000, 8330.000000, 0.000000, 0.000000, 0.000000, 2.000000, 206.400024, 1557649291.643414, 4.000000, 4.000000, 4.000000, 0.000000, 4.000000
99.000000, 0.000000, 4347.692383, 4625.127930, 3958.461426, 4134.871582, 4279.487305, 16187.000000, 8148.000000, 8335.000000, 0.000000, 0.000000, 0.000000, 2.000000, 214.400024, 1557649291.651414, 4.000000, 4.000000, 4.000000, 0.000000, 4.000000
100.000000, 0.000000, 4323.076660, 4602.563965, 3952.820313, 4130.769043, 4262.563965, 450.000000, 8145.000000, 8337.000000, 0.000000, 0.000000, 0.000000, 2.000000, 222.300049, 1557649291.659314, 4.000000, 4.000000, 4.000000, 0.000000, 4.000000
101.000000, 0.000000, 4330.256348, 4628.717773, 3967.692139, 4132.307617, 4266.153809, 450.000000, 8147.000000, 8328.000000, 0.000000, 0.000000, 0.000000, 2.000000, 230.300049, 1557649291.667314, 4.000000, 4.000000, 4.000000, 0.000000, 4.000000
102.000000, 0.000000, 4349.743652, 4645.641113, 3974.871582, 4127.692383, 4263.589844, 450.000000, 8142.000000, 8337.000000, 0.000000, 0.000000, 0.000000, 2.000000, 238.000000, 1557649291.675014, 4.000000, 4.000000, 4.000000, 0.000000, 4.000000
103.000000, 0.000000, 4351.281738, 4623.076660, 3973.333252, 4118.461426, 4247.692383, 16187.000000, 8144.000000, 8344.000000, 0.000000, 0.000000, 0.000000, 2.000000, 245.800049, 1557649291.682814, 4.000000, 4.000000, 4.000000, 0.000000, 4.000000
104.000000, 0.000000, 4336.922852, 4603.589844, 3967.692139, 4122.051270, 4232.820313, 450.000000, 8144.000000, 8333.000000, 0.000000, 0.000000, 0.000000, 2.000000, 253.600037, 1557649291.690614, 4.000000, 4.000000, 4.000000, 0.000000, 4.000000
105.000000, 0.000000, 4327.179199, 4621.025391, 3967.179443, 4128.717773, 4229.230469, 450.000000, 8145.000000, 8330.000000, 0.000000, 0.000000, 0.000000, 2.000000, 261.500000, 1557649291.698514, 4.000000, 4.000000, 4.000000, 0.000000, 4.000000
106.000000, 0.000000, 4325.641113, 4631.281738, 3972.307617, 4121.538574, 4222.051270, 450.000000, 8144.000000, 8337.000000, 0.000000, 0.000000, 0.000000, 2.000000, 269.500000, 1557649291.706514, 4.000000, 4.000000, 4.000000, 0.000000, 4.000000
107.000000, 0.000000, 4326.666504, 4612.307617, 3973.845947, 4117.948730, 4206.153809, 16187.000000, 8145.000000, 8335.000000, 0.000000, 0.000000, 0.000000, 2.000000, 277.400024, 1557649291.714414, 4.000000, 4.000000, 4.000000, 0.000000, 4.000000
108.000000, 0.000000, 4321.025391, 4595.897461, 3972.820313, 4120.512695, 4191.281738, 450.000000, 8140.000000, 8341.000000, 0.000000, 0.000000, 0.000000, 2.000000, 285.400024, 1557649291.722414, 4.000000, 4.000000, 4.000000, 0.000000, 4.000000
109.000000, 0.000000, 4300.512695, 4588.717773, 3972.820313, 4103.076660, 4172.307617, 450.000000, 8140.000000, 8340.000000, 0.000000, 0.000000, 0.000000, 2.000000, 293.300049, 1557649291.730314, 4.000000, 4.000000, 4.000000, 0.000000, 4.000000
110.000000, 0.000000, 4287.179199, 4596.410156, 3980.512695, 4084.102539, 4149.230469, 450.000000, 8143.000000, 8336.000000, 0.000000, 0.000000, 0.000000, 2.000000, 301.100037, 1557649291.738114, 4.000000, 4.000000, 4.000000, 0.000000, 4.000000
111.000000, 0.000000, 4305.641113, 4606.153809, 3994.358887, 4105.127930, 4149.743652, 16187.000000, 8144.000000, 8340.000000, 0.000000, 0.000000, 0.000000, 2.000000, 308.900024, 1557649291.745914, 4.000000, 4.000000, 4.000000, 0.000000, 4.000000
112.000000, 0.000000, 4330.256348, 4582.563965, 3995.384521, 4130.256348, 4164.615234, 450.000000, 8143.000000, 8351.000000, 0.000000, 0.000000, 0.000000, 2.000000, 316.600024, 1557649291.753614, 4.000000, 4.000000, 4.000000, 0.000000, 4.000000
113.000000, 0.000000, 4330.769043, 4563.589844, 3972.307617, 4122.051270, 4155.897461, 450.000000, 8139.000000, 8355.000000, 0.000000, 0.000000, 0.000000, 2.000000, 324.600024, 1557649291.761614, 4.000000, 4.000000, 4.000000, 0.000000, 4.000000
114.000000, 0.000000, 4318.974121, 4580.512695, 3956.923096, 4110.256348, 4128.717773, 450.000000, 8145.000000, 8345.000000, 0.000000, 0.000000, 0.000000, 2.000000, 332.500025, 1557649291.769514, 4.000000, 4.000000, 4.000000, 0.000000, 4.000000
115.000000, 0.000000, 4308.717773, 4578.974121, 3957.948730, 4104.102539, 4103.589844, 16187.000000, 8147.000000, 8338.000000, 0.000000, 0.000000, 0.000000, 2.000000, 340.500025, 1557649291.777514, 4.000000, 4.000000, 4.000000, 0.000000, 4.000000
116.000000, 0.000000, 4295.384277, 4547.179199, 3952.820313, 4096.410156, 4086.666504, 450.000000, 8148.000000, 8348.000000, 0.000000, 0.000000, 0.000000, 2.000000, 348.400024, 1557649291.785414, 4.000000, 4.000000, 4.000000, 0.000000, 4.000000
117.000000, 0.000000, 4291.794922, 4540.000000, 3947.179443, 4093.333252, 4081.025635, 450.000000, 8151.000000, 8335.000000, 0.000000, 0.000000, 0.000000, 2.000000, 356.400024, 1557649291.793414, 4.000000, 4.000000, 4.000000, 0.000000, 4.000000
118.000000, 0.000000, 4302.563965, 4557.948730, 3958.461426, 4098.974121, 4073.845947, 450.000000, 8148.000000, 8336.000000, 0.000000, 0.000000, 0.000000, 2.000000, 364.300026, 1557649291.801314, 4.000000, 4.000000, 4.000000, 0.000000, 4.000000
119.000000, 0.000000, 4310.256348, 4573.846191, 3974.871582, 4103.076660, 4060.512695, 16187.000000, 8144.000000, 8345.000000, 0.000000, 0.000000, 0.000000, 2.000000, 372.000023, 1557649291.809014, 4.000000, 4.000000, 4.000000, 0.000000, 4.000000
120.000000, 0.000000, 4302.563965, 4575.897461, 3962.051270, 4103.076660, 4047.692139, 450.000000, 8157.000000, 8345.000000, 0.000000, 0.000000, 0.000000, 2.000000, 379.800026, 1557649291.816814, 4.000000, 4.000000, 4.000000, 0.000000, 4.000000
121.000000, 0.000000, 4294.358887, 4564.102539, 3942.051270, 4093.845947, 4031.281982, 450.000000, 8152.000000, 8344.000000, 0.000000, 0.000000, 0.000000, 2.000000, 387.600021, 1557649291.824614, 4.000000, 4.000000, 4.000000, 0.000000, 4.000000
122.000000, 0.000000, 4299.487305, 4557.435547, 3957.435791, 4086.153809, 4012.820313, 450.000000, 8147.000000, 8342.000000, 0.000000, 0.000000, 0.000000, 2.000000, 395.500023, 1557649291.832514, 4.000000, 4.000000, 4.000000, 0.000000, 4.000000
123.000000, 0.000000, 4296.922852, 4554.358887, 3978.974365, 4098.461426, 4003.076904, 16187.000000, 8148.000000, 8337.000000, 0.000000, 0.000000, 0.000000, 2.000000, 403.400024, 1557649291.840414, 4.000000, 4.000000, 4.000000, 0.000000, 4.000000
124.000000, 0.000000, 4276.410156, 4537.435547, 3958.974365, 4107.179199, 3979.487061, 450.000000, 8147.000000, 8329.000000, 0.000000, 0.000000, 0.000000, 2.000000, 411.400024, 1557649291.848414, 4.000000, 4.000000, 4.000000, 0.000000, 4.000000
125.000000, 0.000000, 4273.333008, 4524.102539, 3930.256348, 4098.974121, 3947.179443, 450.000000, 8147.000000, 8335.000000, 0.000000, 0.000000, 0.000000, 2.000000, 419.300026, 1557649291.856314, 4.000000, 4.000000, 4.000000, 0.000000, 4.000000
126.000000, 0.000000, 4288.205078, 4522.051270, 3936.410156, 4093.845947, 3935.384521, 450.000000, 8141.000000, 8346.000000, 0.000000, 0.000000, 0.000000, 2.000000, 427.200027, 1557649291.864214, 4.000000, 4.000000, 4.000000, 0.000000, 4.000000
127.000000, 0.000000, 4271.794922, 4509.230469, 3936.410156, 4091.794678, 3916.923096, 16187.000000, 8143.000000, 8331.000000, 0.000000, 0.000000, 0.000000, 2.000000, 435.000023, 1557649291.872014, 4.000000, 4.000000, 4.000000, 0.000000, 4.000000
128.000000, 0.000000, 4245.127930, 4494.358887, 3915.897461, 4077.435791, 3885.128174, 500.000000, 8140.000000, 8330.000000, 0.000000, 0.000000, 0.000000, 2.000000, 442.700027, 1557649291.879714, 4.000000, 4.000000, 4.000000, 0.000000, 4.000000
0.000000, 0.000000, 4253.333008, 4503.589844, 3909.743408, 4065.640869, 3868.717773, 500.000000, 8141.000000, 8341.000000, 0.000000, 0.000000, 0.000000, 2.000000, 450.600021, 1557649291.887614, 4.000000, 4.000000, 4.000000, 0.000000, 4.000000
1.000000, 0.000000, 4272.307617, 4514.358887, 3927.179443, 4084.615234, 3869.230713, 500.000000, 8142.000000, 8338.000000, 0.000000, 0.000000, 0.000000, 2.000000, 458.500031, 1557649291.895514, 4.000000, 4.000000, 4.000000, 0.000000, 4.000000
2.000000, 0.000000, 4267.179199, 4497.435547, 3944.615234, 4098.974121, 3852.820313, 16193.000000, 8141.000000, 8329.000000, 0.000000, 0.000000, 0.000000, 2.000000, 466.500031, 1557649291.903514, 4.000000, 4.000000, 4.000000, 0.000000, 4.000000
3.000000, 0.000000, 4242.563965, 4464.102539, 3942.051270, 4077.948730, 3808.205078, 500.000000, 8141.000000, 8336.000000, 0.000000, 0.000000, 0.000000, 2.000000, 474.400024, 1557649291.911414, 4.000000, 4.000000, 4.000000, 0.000000, 4.000000
4.000000, 0.000000, 4229.230469, 4462.563965, 3938.461426, 4064.615234, 3781.025635, 16148.000000, 8138.000000, 8333.000000, 0.000000, 0.000000, 0.000000, 2.000000, 482.300018, 1557649291.919314, 4.000000, 4.000000, 4.000000, 0.000000, 4.000000
5.000000, 0.000000, 4237.948730, 4486.666504, 3945.640869, 4077.948730, 3783.076904, 500.000000, 8145.000000, 8329.000000, 0.000000, 0.000000, 0.000000, 2.000000, 490.300018, 1557649291.927314, 4.000000, 4.000000, 4.000000, 0.000000, 4.000000
6.000000, 0.000000, 4231.794922, 4473.333008, 3945.640869, 4077.948730, 3763.076904, 16155.000000, 8141.000000, 8338.000000, 0.000000, 0.000000, 0.000000, 2.000000, 498.200027, 1557649291.935214, 4.000000, 4.000000, 4.000000, 0.000000, 4.000000
7.000000, 0.000000, 4217.948730, 4451.281738, 3946.666504, 4064.102539, 3736.410156, 500.000000, 8142.000000, 8340.000000, 0.000000, 0.000000, 0.000000, 2.000000, 506.000031, 1557649291.943014, 4.000000, 4.000000, 4.000000, 0.000000, 4.000000
8.000000, 0.000000, 4231.794922, 4453.333008, 3958.461426, 4066.153809, 3732.820313, 500.000000, 8144.000000, 8338.000000, 0.000000, 0.000000, 0.000000, 2.000000, 513.700027, 1557649291.950714, 4.000000, 4.000000, 4.000000, 0.000000, 4.000000
9.000000, 0.000000, 4238.974121, 4435.384277, 3958.461426, 4069.743408, 3712.307617, 4.000000, 8136.000000, 8345.000000, 0.000000, 0.000000, 0.000000, 2.000000, 521.500031, 1557649291.958514, 4.000000, 4.000000, 4.000000, 0.000000, 4.000000
10.000000, 0.000000, 4225.641113, 4417.435547, 3956.410156, 4074.871582, 3684.615234, 500.000000, 8138.000000, 8353.000000, 0.000000, 0.000000, 0.000000, 2.000000, 529.400024, 1557649291.966414, 4.000000, 4.000000, 4.000000, 0.000000, 4.000000
11.000000, 0.000000, 4231.794922, 4426.153809, 3972.820313, 4084.615234, 3686.666504, 16187.000000, 8150.000000, 8342.000000, 0.000000, 0.000000, 0.000000, 2.000000, 537.300018, 1557649291.974314, 4.000000, 4.000000, 4.000000, 0.000000, 4.000000
12.000000, 0.000000, 4229.743652, 4416.922852, 3980.000000, 4073.333252, 3681.025635, 500.000000, 8142.000000, 8353.000000, 0.000000, 0.000000, 0.000000, 2.000000, 545.300018, 1557649291.982314, 4.000000, 4.000000, 4.000000, 0.000000, 4.000000
13.000000, 0.000000, 4203.589844, 4403.589844, 3975.384521, 4061.025635, 3653.845947, 500.000000, 8143.000000, 8362.000000, 0.000000, 0.000000, 0.000000, 2.000000, 553.200027, 1557649291.990214, 4.000000, 4.000000, 4.000000, 0.000000, 4.000000
14.000000, 0.000000, 4224.615234, 4428.205078, 3988.205078, 4077.435791, 3653.333252, 450.000000, 8145.000000, 8353.000000, 0.000000, 0.000000, 0.000000, 2.000000, 561.000031, 1557649291.998014, 4.000000, 4.000000, 4.000000, 0.000000, 4.000000
15.000000, 0.000000, 4261.538574, 4431.794922, 4002.051270, 4084.615234, 3655.897461, 16187.000000, 8147.000000, 8343.000000, 0.000000, 0.000000, 0.000000, 2.000000, 568.700027, 1557649292.005714, 4.000000, 4.000000, 4.000000, 0.000000, 4.000000
16.000000, 0.000000, 4234.871582, 4393.846191, 3995.897217, 4066.153809, 3622.563965, 0.000000, 8142.000000, 8343.000000, 0.000000, 0.000000, 0.000000, 2.000000, 576.500031, 1557649292.013514, 4.000000, 4.000000, 4.000000, 0.000000, 4.000000
17.000000, 0.000000, 4211.794922, 4385.127930, 3997.435791, 4078.974365, 3601.538330, 0.000000, 8144.000000, 8353.000000, 0.000000, 0.000000, 0.000000, 2.000000, 584.400024, 1557649292.021414, 4.000000, 4.000000, 4.000000, 0.000000, 4.000000
18.000000, 0.000000, 4231.281738, 4399.487305, 4013.845947, 4094.871582, 3598.461426, 0.000000, 8142.000000, 8357.000000, 0.000000, 0.000000, 0.000000, 2.000000, 592.400024, 1557649292.029414, 4.000000, 4.000000, 4.000000, 0.000000, 4.000000
19.000000, 0.000000, 4229.230469, 4400.512695, 4034.358887, 4074.358887, 3582.051270, 0.000000, 8144.000000, 8356.000000, 0.000000, 0.000000, 0.000000, 2.000000, 600.300018, 1557649292.037314, 4.000000, 4.000000, 4.000000, 0.000000, 4.000000
20.000000, 0.000000, 4208.717773, 4395.384277, 4047.179443, 4065.128174, 3554.358887, 0.000000, 8144.000000, 8359.000000, 0.000000, 0.000000, 0.000000, 2.000000, 608.200012, 1557649292.045214, 4.000000, 4.000000, 4.000000, 0.000000, 4.000000
21.000000, 0.000000, 4220.000000, 4393.846191, 4057.948730, 4086.153809, 3542.563965, 0.000000, 8135.000000, 8356.000000, 0.000000, 0.000000, 0.000000, 2.000000, 616.200012, 1557649292.053214, 4.000000, 4.000000, 4.000000, 0.000000, 4.000000
22.000000, 0.000000, 4245.127930, 4394.871582, 4081.025635, 4098.461426, 3547.179443, 0.000000, 8132.000000, 8360.000000, 0.000000, 0.000000, 0.000000, 2.000000, 624.100037, 1557649292.061114, 4.000000, 4.000000, 4.000000, 0.000000, 4.000000
23.000000, 0.000000, 4255.384277, 4391.794922, 4107.179199, 4098.974121, 3544.102539, 0.000000, 8129.000000, 8361.000000, 0.000000, 0.000000, 0.000000, 2.000000, 632.100037, 1557649292.069114, 4.000000, 4.000000, 4.000000, 0.000000, 4.000000
24.000000, 0.000000, 4246.666504, 4376.410156, 4112.307617, 4097.948730, 3517.435791, 0.000000, 8130.000000, 8353.000000, 0.000000, 0.000000, 0.000000, 2.000000, 639.800018, 1557649292.076814, 4.000000, 4.000000, 4.000000, 0.000000, 4.000000
25.000000, 0.000000, 4235.384277, 4355.897461, 4096.410156, 4084.615234, 3482.563965, 0.000000, 8132.000000, 8351.000000, 0.000000, 0.000000, 0.000000, 2.000000, 647.600037, 1557649292.084614, 4.000000, 4.000000, 4.000000, 0.000000, 4.000000
26.000000, 0.000000, 4245.641113, 4351.794922, 4088.205078, 4086.153809, 3469.230713, 0.000000, 8125.000000, 8361.000000, 0.000000, 0.000000, 0.000000, 2.000000, 655.500031, 1557649292.092514, 4.000000, 4.000000, 4.000000, 0.000000, 4.000000
27.000000, 0.000000, 4239.487305, 4346.666504, 4091.281982, 4098.974121, 3441.025635, 0.000000, 8127.000000, 8365.000000, 0.000000, 0.000000, 0.000000, 2.000000, 663.400024, 1557649292.100414, 4.000000, 4.000000, 4.000000, 0.000000, 4.000000
28.000000, 0.000000, 4204.615234, 4322.563965, 4078.461426, 4096.410156, 3390.769043, 0.000000, 8127.000000, 8348.000000, 0.000000, 0.000000, 0.000000, 2.000000, 671.400024, 1557649292.108414, 4.000000, 4.000000, 4.000000, 0.000000, 4.000000
29.000000, 0.000000, 4193.846191, 4311.794922, 4056.410156, 4091.281982, 3361.538330, 0.000000, 8134.000000, 8347.000000, 0.000000, 0.000000, 0.000000, 2.000000, 679.300018, 1557649292.116314, 4.000000, 4.000000, 4.000000, 0.000000, 4.000000
30.000000, 0.000000, 4207.179199, 4308.205078, 4062.563965, 4082.563965, 3343.589600, 0.000000, 8122.000000, 8355.000000, 0.000000, 0.000000, 0.000000, 2.000000, 687.300018, 1557649292.124314, 4.000000, 4.000000, 4.000000, 0.000000, 4.000000
31.000000, 0.000000, 4198.461426, 4285.127930, 4080.512695, 4073.333252, 3312.307617, 0.000000, 8132.000000, 8359.000000, 0.000000, 0.000000, 0.000000, 2.000000, 695.200012, 1557649292.132214, 4.000000, 4.000000, 4.000000, 0.000000, 4.000000
32.000000, 0.000000, 4172.820313, 4270.769043, 4066.666504, 4080.512695, 3271.794678, 0.000000, 8137.000000, 8350.000000, 0.000000, 0.000000, 0.000000, 2.000000, 703.000031, 1557649292.140014, 4.000000, 4.000000, 4.000000, 0.000000, 4.000000
33.000000, 0.000000, 4167.692383, 4281.538574, 4054.358887, 4089.743408, 3252.307617, 0.000000, 8140.000000, 8352.000000, 0.000000, 0.000000, 0.000000, 2.000000, 710.700012, 1557649292.147714, 4.000000, 4.000000, 4.000000, 0.000000, 4.000000
34.000000, 0.000000, 4169.743652, 4282.051270, 4067.692139, 4087.179443, 3252.820313, 0.000000, 8150.000000, 8351.000000, 0.000000, 0.000000, 0.000000, 2.000000, 718.500031, 1557649292.155514, 4.000000, 4.000000, 4.000000, 0.000000, 4.000000
35.000000, 0.000000, 4143.589844, 4253.846191, 4061.538330, 4078.461426, 3229.743408, 0.000000, 8150.000000, 8355.000000, 0.000000, 0.000000, 0.000000, 2.000000, 726.500031, 1557649292.163514, 4.000000, 4.000000, 4.000000, 0.000000, 4.000000
36.000000, 0.000000, 4122.563965, 4241.538574, 4052.820313, 4071.794678, 3188.717773, 0.000000, 8156.000000, 8368.000000, 0.000000, 0.000000, 0.000000, 2.000000, 734.400024, 1557649292.171414, 4.000000, 4.000000, 4.000000, 0.000000, 4.000000
37.000000, 0.000000, 4136.410156, 4250.769043, 4067.692139, 4081.025635, 3176.923096, 0.000000, 8155.000000, 8362.000000, 0.000000, 0.000000, 0.000000, 2.000000, 742.400024, 1557649292.179414, 4.000000, 4.000000, 4.000000, 0.000000, 4.000000
38.000000, 0.000000, 4134.871582, 4235.897461, 4061.025635, 4091.281982, 3178.974365, 0.000000, 8161.000000, 8362.000000, 0.000000, 0.000000, 0.000000, 2.000000, 750.300018, 1557649292.187314, 4.000000, 4.000000, 4.000000, 0.000000, 4.000000
39.000000, 0.000000, 4110.256348, 4215.897461, 4034.358887, 4081.025635, 3165.128174, 0.000000, 8156.000000, 8375.000000, 0.000000, 0.000000, 0.000000, 2.000000, 758.300018, 1557649292.195314, 4.000000, 4.000000, 4.000000, 0.000000, 4.000000
40.000000, 0.000000, 4106.666504, 4228.717773, 4044.102539, 4070.256348, 3164.615234, 0.000000, 8158.000000, 8382.000000, 0.000000, 0.000000, 0.000000, 2.000000, 766.000031, 1557649292.203014, 4.000000, 4.000000, 4.000000, 0.000000, 4.000000
41.000000, 0.000000, 4109.230469, 4250.769043, 4072.307617, 4081.025635, 3169.743408, 0.000000, 8159.000000, 8374.000000, 0.000000, 0.000000, 0.000000, 2.000000, 773.700012, 1557649292.210714, 4.000000, 4.000000, 4.000000, 0.000000, 4.000000
42.000000, 0.000000, 4096.922852, 4241.025391, 4068.205078, 4088.205078, 3146.153809, 0.000000, 8150.000000, 8379.000000, 0.000000, 0.000000, 0.000000, 2.000000, 781.600037, 1557649292.218614, 4.000000, 4.000000, 4.000000, 0.000000, 4.000000
43.000000, 0.000000, 4078.974365, 4215.384277, 4050.256348, 4074.358887, 3123.076904, 0.000000, 8147.000000, 8387.000000, 0.000000, 0.000000, 0.000000, 2.000000, 789.400024, 1557649292.226414, 4.000000, 4.000000, 4.000000, 0.000000, 4.000000
44.000000, 0.000000, 4065.640869, 4215.384277, 4051.281982, 4065.640869, 3130.256348, 0.000000, 8144.000000, 8380.000000, 0.000000, 0.000000, 0.000000, 2.000000, 797.400024, 1557649292.234414, 4.000000, 4.000000, 4.000000, 0.000000, 4.000000
45.000000, 0.000000, 4062.051270, 4234.358887, 4053.333252, 4075.384521, 3132.307617, 0.000000, 8141.000000, 8373.000000, 0.000000, 0.000000, 0.000000, 2.000000, 805.300018, 1557649292.242314, 4.000000, 4.000000, 4.000000, 0.000000, 4.000000
46.000000, 0.000000, 4056.923096, 4232.307617, 4023.589600, 4073.333252, 3105.128174, 0.000000, 8136.000000, 8380.000000, 0.000000, 0.000000, 0.000000, 2.000000, 813.300018, 1557649292.250314, 4.000000, 4.000000, 4.000000, 0.000000, 4.000000
47.000000, 0.000000, 4043.589600, 4203.076660, 3997.435791, 4060.512695, 3079.487061, 0.000000, 8133.000000, 8379.000000, 0.000000, 0.000000, 0.000000, 2.000000, 821.000031, 1557649292.258014, 4.000000, 4.000000, 4.000000, 0.000000, 4.000000
48.000000, 0.000000, 4032.307617, 4192.307617, 4004.615234, 4064.615234, 3070.769043, 0.000000, 8127.000000, 8378.000000, 0.000000, 0.000000, 0.000000, 2.000000, 828.700012, 1557649292.265714, 4.000000, 4.000000, 4.000000, 0.000000, 4.000000
49.000000, 0.000000, 4028.717773, 4206.153809, 4013.333252, 4070.769043, 3063.076904, 0.000000, 8129.000000, 8378.000000, 0.000000, 0.000000, 0.000000, 2.000000, 836.600037, 1557649292.273614, 4.000000, 4.000000, 4.000000, 0.000000, 4.000000
50.000000, 0.000000, 4030.769043, 4212.307617, 4017.948730, 4069.743408, 3069.230713, 0.000000, 8132.000000, 8377.000000, 0.000000, 0.000000, 0.000000, 2.000000, 844.400024, 1557649292.281414, 4.000000, 4.000000, 4.000000, 0.000000, 4.000000
51.000000, 0.000000, 4035.897217, 4212.820313, 4025.128174, 4077.948730, 3089.230713, 0.000000, 8130.000000, 8369.000000, 0.000000, 0.000000, 0.000000, 2.000000, 852.400024, 1557649292.289414, 4.000000, 4.000000, 4.000000, 0.000000, 4.000000
52.000000, 0.000000, 4027.692139, 4220.512695, 4019.487061, 4080.512695, 3081.025635, 0.000000, 8120.000000, 8370.000000, 0.000000, 0.000000, 0.000000, 2.000000, 860.300049, 1557649292.297314, 4.000000, 4.000000, 4.000000, 0.000000, 4.000000
53.000000, 0.000000, 3996.923096, 4217.436035, 4012.307617, 4061.025635, 3043.076904, 0.000000, 8124.000000, 8366.000000, 0.000000, 0.000000, 0.000000, 2.000000, 868.300049, 1557649292.305314, 4.000000, 4.000000, 4.000000, 0.000000, 4.000000
54.000000, 0.000000, 3969.230713, 4197.436035, 4021.538330, 4050.256348, 3019.487061, 0.000000, 8123.000000, 8351.000000, 0.000000, 0.000000, 0.000000, 2.000000, 876.200012, 1557649292.313214, 4.000000, 4.000000, 4.000000, 0.000000, 4.000000
55.000000, 0.000000, 3967.179443, 4204.102539, 4025.640869, 4055.384521, 3020.000000, 0.000000, 8127.000000, 8348.000000, 0.000000, 0.000000, 0.000000, 2.000000, 884.200012, 1557649292.321214, 4.000000, 4.000000, 4.000000, 0.000000, 4.000000
56.000000, 0.000000, 3981.538330, 4233.333008, 4018.461426, 4056.410156, 3023.076904, 0.000000, 8127.000000, 8360.000000, 0.000000, 0.000000, 0.000000, 2.000000, 892.100037, 1557649292.329114, 4.000000, 4.000000, 4.000000, 0.000000, 4.000000
57.000000, 0.000000, 3975.897217, 4221.025391, 4024.102539, 4061.538330, 3022.563965, 0.000000, 8133.000000, 8356.000000, 0.000000, 0.000000, 0.000000, 2.000000, 899.800049, 1557649292.336814, 4.000000, 4.000000, 4.000000, 0.000000, 4.000000
58.000000, 0.000000, 3961.025635, 4195.897461, 4035.897217, 4069.230713, 3023.589600, 0.000000, 8135.000000, 8342.000000, 0.000000, 0.000000, 0.000000, 2.000000, 907.600037, 1557649292.344614, 4.000000, 4.000000, 4.000000, 0.000000, 4.000000
59.000000, 0.000000, 3960.000000, 4211.794922, 4033.333252, 4065.640869, 3016.410156, 0.000000, 8139.000000, 8341.000000, 0.000000, 0.000000, 0.000000, 2.000000, 915.400024, 1557649292.352414, 4.000000, 4.000000, 4.000000, 0.000000, 4.000000
60.000000, 0.000000, 3940.512695, 4220.512695, 4012.820313, 4060.000000, 2997.435791, 0.000000, 8133.000000, 8348.000000, 0.000000, 0.000000, 0.000000, 2.000000, 923.400024, 1557649292.360414, 4.000000, 4.000000, 4.000000, 0.000000, 4.000000
61.000000, 0.000000, 3914.358887, 4201.025391, 3993.333252, 4059.487061, 2981.025635, 0.000000, 8136.000000, 8344.000000, 0.000000, 0.000000, 0.000000, 2.000000, 931.300049, 1557649292.368314, 4.000000, 4.000000, 4.000000, 0.000000, 4.000000
62.000000, 0.000000, 3906.666504, 4193.846191, 3985.128174, 4053.333252, 2972.307617, 0.000000, 8140.000000, 8345.000000, 0.000000, 0.000000, 0.000000, 2.000000, 939.300049, 1557649292.376314, 4.000000, 4.000000, 4.000000, 0.000000, 4.000000
63.000000, 0.000000, 3900.000000, 4196.922852, 3973.333252, 4049.230713, 2966.153809, 0.000000, 8147.000000, 8350.000000, 0.000000, 0.000000, 0.000000, 2.000000, 947.200012, 1557649292.384214, 4.000000, 4.000000, 4.000000, 0.000000, 4.000000
64.000000, 0.000000, 3895.384521, 4186.666504, 3959.487061, 4046.666504, 2960.000000, 500.000000, 8140.000000, 8347.000000, 0.000000, 0.000000, 0.000000, 2.000000, 955.100037, 1557649292.392114, 4.000000, 4.000000, 4.000000, 0.000000, 4.000000
65.000000, 0.000000, 3901.538330, 4182.563965, 3970.256348, 4046.666504, 2966.153809, 500.000000, 8136.000000, 8351.000000, 0.000000, 0.000000, 0.000000, 2.000000, 962.900024, 1557649292.399914, 4.000000, 4.000000, 4.000000, 0.000000, 4.000000
66.000000, 0.000000, 3901.538330, 4185.641113, 3987.692139, 4059.487061, 2978.974365, 16194.000000, 8138.000000, 8348.000000, 0.000000, 0.000000, 0.000000, 2.000000, 970.600037, 1557649292.407614, 4.000000, 4.000000, 4.000000, 0.000000, 4.000000
67.000000, 0.000000, 3891.794678, 4174.871582, 3974.358887, 4062.563965, 2968.717773, 500.000000, 8143.000000, 8340.000000, 0.000000, 0.000000, 0.000000, 2.000000, 978.500000, 1557649292.415514, 4.000000, 4.000000, 4.000000, 0.000000, 4.000000
68.000000, 0.000000, 3889.230713, 4172.820313, 3963.589600, 4048.205078, 2955.384521, 16193.000000, 8147.000000, 8334.000000, 0.000000, 0.000000, 0.000000, 2.000000, 986.400024, 1557649292.423414, 4.000000, 4.000000, 4.000000, 0.000000, 4.000000
69.000000, 0.000000, 3886.666504, 4188.205078, 3973.845947, 4044.102539, 2969.743408, 500.000000, 8146.000000, 8345.000000, 0.000000, 0.000000, 0.000000, 2.000000, 994.400024, 1557649292.431414, 4.000000, 4.000000, 4.000000, 0.000000, 4.000000
70.000000, 0.000000, 3881.025635, 4184.615234, 3976.923096, 4048.717773, 2977.948730, 16154.000000, 8147.000000, 8343.000000, 0.000000, 0.000000, 0.000000, 3.000000, 2.300049, 1557649292.439314, 4.000000, 4.000000, 4.000000, 0.000000, 4.000000
71.000000, 0.000000, 3870.769043, 4168.717773, 3974.871582, 4040.512695, 2963.076904, 500.000000, 8145.000000, 8328.000000, 0.000000, 0.000000, 0.000000, 3.000000, 10.200012, 1557649292.447214, 4.000000, 4.000000, 4.000000, 0.000000, 4.000000
72.000000, 0.000000, 3863.076904, 4169.230469, 3985.128174, 4038.461426, 2966.153809, 500.000000, 8149.000000, 8330.000000, 0.000000, 0.000000, 0.000000, 3.000000, 18.200012, 1557649292.455214, 4.000000, 4.000000, 4.000000, 0.000000, 4.000000
73.000000, 0.000000, 3863.076904, 4161.538574, 3980.000000, 4051.794678, 2971.281982, 4.000000, 8145.000000, 8340.000000, 0.000000, 0.000000, 0.000000, 3.000000, 25.900024, 1557649292.462914, 4.000000, 4.000000, 4.000000, 0.000000, 4.000000
74.000000, 0.000000, 3848.205078, 4129.743652, 3961.025635, 4044.102539, 2952.307617, 500.000000, 8144.000000, 8337.000000, 0.000000, 0.000000, 0.000000, 3.000000, 33.700012, 1557649292.470714, 4.000000, 4.000000, 4.000000, 0.000000, 4.000000
75.000000, 0.000000, 3831.794678, 4122.051270, 3966.153809, 4019.487061, 2942.051270, 16204.000000, 8143.000000, 8333.000000, 0.000000, 0.000000, 0.000000, 3.000000, 41.400024, 1557649292.478414, 4.000000, 4.000000, 4.000000, 0.000000, 4.000000
76.000000, 0.000000, 3835.897461, 4127.692383, 3976.410156, 4017.435791, 2945.128174, 500.000000, 8139.000000, 8338.000000, 0.000000, 0.000000, 0.000000, 3.000000, 49.400024, 1557649292.486414, 4.000000, 4.000000, 4.000000, 0.000000, 4.000000
77.000000, 0.000000, 3842.051270, 4119.487305, 3971.281982, 4044.102539, 2946.666504, 500.000000, 8146.000000, 8334.000000, 0.000000, 0.000000, 0.000000, 3.000000, 57.300049, 1557649292.494314, 4.000000, 4.000000, 4.000000, 0.000000, 4.000000
78.000000, 0.000000, 3848.205078, 4118.461426, 3973.845947, 4054.871582, 2966.666504, 450.000000, 8137.000000, 8332.000000, 0.000000, 0.000000, 0.000000, 3.000000, 65.200012, 1557649292.502214, 4.000000, 4.000000, 4.000000, 0.000000, 4.000000
79.000000, 0.000000, 3850.769043, 4104.615234, 3974.871582, 4042.563965, 2984.102539, 16204.000000, 8134.000000, 8343.000000, 0.000000, 0.000000, 0.000000, 3.000000, 73.000000, 1557649292.510014, 4.000000, 4.000000, 4.000000, 0.000000, 4.000000
80.000000, 0.000000, 3835.384521, 4062.563965, 3954.871582, 4035.384521, 2966.153809, 450.000000, 8134.000000, 8338.000000, 0.000000, 0.000000, 0.000000, 3.000000, 80.900024, 1557649292.517914, 4.000000, 4.000000, 4.000000, 0.000000, 4.000000
81.000000, 0.000000, 3820.512695, 4037.948730, 3942.051270, 4028.717773, 2951.794678, 450.000000, 8135.000000, 8342.000000, 0.000000, 0.000000, 0.000000, 3.000000, 88.700012, 1557649292.525714, 4.000000, 4.000000, 4.000000, 0.000000, 4.000000
82.000000, 0.000000, 3826.666504, 4038.974365, 3956.923096, 4026.666504, 2972.307617, 450.000000, 8135.000000, 8355.000000, 0.000000, 0.000000, 0.000000, 3.000000, 96.500000, 1557649292.533514, 4.000000, 4.000000, 4.000000, 0.000000, 4.000000
83.000000, 0.000000, 3836.410156, 4008.205078, 3959.487061, 4025.640869, 2983.589600, 16204.000000, 8133.000000, 8358.000000, 0.000000, 0.000000, 0.000000, 3.000000, 104.500000, 1557649292.541514, 4.000000, 4.000000, 4.000000, 0.000000, 4.000000
84.000000, 0.000000, 3830.256348, 3956.923096, 3943.076904, 4026.666504, 2976.410156, 450.000000, 8130.000000, 8345.000000, 0.000000, 0.000000, 0.000000, 3.000000, 112.400024, 1557649292.549414, 4.000000, 4.000000, 4.000000, 0.000000, 4.000000
85.000000, 0.000000, 3820.512695, 3953.845947, 3936.410156, 4034.871582, 2981.025635, 450.000000, 8137.000000, 8349.000000, 0.000000, 0.000000, 0.000000, 3.000000, 120.400024, 1557649292.557414, 4.000000, 4.000000, 4.000000, 0.000000, 4.000000
86.000000, 0.000000, 3813.845947, 3956.923096, 3928.717773, 4033.333252, 2985.128174, 450.000000, 8133.000000, 8362.000000, 0.000000, 0.000000, 0.000000, 3.000000, 128.300049, 1557649292.565314, 4.000000, 4.000000, 4.000000, 0.000000, 4.000000
87.000000, 0.000000, 3798.974365, 3920.000000, 3914.358887, 4022.563965, 2976.923096, 16204.000000, 8137.000000, 8354.000000, 0.000000, 0.000000, 0.000000, 3.000000, 136.200012, 1557649292.573214, 4.000000, 4.000000, 4.000000, 0.000000, 4.000000
88.000000, 0.000000, 3791.794678, 3903.076904, 3908.717773, 4024.615234, 2978.974365, 450.000000, 8139.000000, 8354.000000, 0.000000, 0.000000, 0.000000, 3.000000, 144.200012, 1557649292.581214, 4.000000, 4.000000, 4.000000, 0.000000, 4.000000
89.000000, 0.000000, 3808.717773, 3927.692139, 3912.307617, 4041.025635, 3002.563965, 450.000000, 8135.000000, 8355.000000, 0.000000, 0.000000, 0.000000, 3.000000, 151.900024, 1557649292.588914, 4.000000, 4.000000, 4.000000, 0.000000, 4.000000
90.000000, 0.000000, 3815.897461, 3932.820313, 3911.281982, 4040.512695, 3020.512695, 450.000000, 8135.000000, 8356.000000, 0.000000, 0.000000, 0.000000, 3.000000, 159.700012, 1557649292.596714, 4.000000, 4.000000, 4.000000, 0.000000, 4.000000
91.000000, 0.000000, 3808.205078, 3922.563965, 3915.897461, 4030.256348, 3025.640869, 16204.000000, 8138.000000, 8351.000000, 0.000000, 0.000000, 0.000000, 3.000000, 167.500000, 1557649292.604514, 4.000000, 4.000000, 4.000000, 0.000000, 4.000000
92.000000, 0.000000, 3812.820313, 3924.102539, 3934.358887, 4026.666504, 3030.769043, 450.000000, 8138.000000, 8355.000000, 0.000000, 0.000000, 0.000000, 3.000000, 175.500000, 1557649292.612514, 4.000000, 4.000000, 4.000000, 0.000000, 4.000000
93.000000, 0.000000, 3811.281982, 3913.845947, 3933.845947, 4029.743408, 3036.410156, 450.000000, 8141.000000, 8355.000000, 0.000000, 0.000000, 0.000000, 3.000000, 183.400024, 1557649292.620414, 4.000000, 4.000000, 4.000000, 0.000000, 4.000000
94.000000, 0.000000, 3808.717773, 3900.512695, 3917.435791, 4042.051270, 3050.256348, 450.000000, 8142.000000, 8352.000000, 0.000000, 0.000000, 0.000000, 3.000000, 191.300049, 1557649292.628314, 4.000000, 4.000000, 4.000000, 0.000000, 4.000000
95.000000, 0.000000, 3814.358887, 3871.281982, 3905.640869, 4044.615234, 3061.025635, 16204.000000, 8140.000000, 8354.000000, 0.000000, 0.000000, 0.000000, 3.000000, 199.300049, 1557649292.636314, 4.000000, 4.000000, 4.000000, 0.000000, 4.000000
96.000000, 0.000000, 3805.128174, 3816.410156, 3894.871582, 4031.794678, 3056.923096, 450.000000, 8139.000000, 8359.000000, 0.000000, 0.000000, 0.000000, 3.000000, 207.200012, 1557649292.644214, 4.000000, 4.000000, 4.000000, 0.000000, 4.000000
97.000000, 0.000000, 3801.538330, 3796.410156, 3893.333252, 4027.179443, 3057.948730, 450.000000, 8145.000000, 8342.000000, 0.000000, 0.000000, 0.000000, 3.000000, 215.200012, 1557649292.652214, 4.000000, 4.000000, 4.000000, 0.000000, 4.000000
98.000000, 0.000000, 3821.538330, 3814.358887, 3918.461426, 4041.538330, 3078.461426, 450.000000, 8136.000000, 8340.000000, 0.000000, 0.000000, 0.000000, 3.000000, 222.900024, 1557649292.659914, 4.000000, 4.000000, 4.000000, 0.000000, 4.000000
99.000000, 0.000000, 3826.153809, 3817.948730, 3940.512695, 4050.769043, 3093.333252, 16204.000000, 8134.000000, 8353.000000, 0.000000, 0.000000, 0.000000, 3.000000, 230.700012, 1557649292.667714, 4.000000, 4.000000, 4.000000, 0.000000, 4.000000
100.000000, 0.000000, 3807.179443, 3810.256348, 3935.384521, 4042.563965, 3095.384521, 450.000000, 8145.000000, 8348.000000, 0.000000, 0.000000, 0.000000, 3.000000, 238.600037, 1557649292.675614, 4.000000, 4.000000, 4.000000, 0.000000, 4.000000
101.000000, 0.000000, 3800.000000, 3813.845947, 3928.717773, 4038.461426, 3107.692139, 450.000000, 8144.000000, 8348.000000, 0.000000, 0.000000, 0.000000, 3.000000, 246.500000, 1557649292.683514, 4.000000, 4.000000, 4.000000, 0.000000, 4.000000
102.000000, 0.000000, 3800.000000, 3813.845947, 3920.512695, 4045.128174, 3113.846191, 450.000000, 8133.000000, 8350.000000, 0.000000, 0.000000, 0.000000, 3.000000, 254.500000, 1557649292.691514, 4.000000, 4.000000, 4.000000, 0.000000, 4.000000
103.000000, 0.000000, 3795.384521, 3813.845947, 3904.102539, 4044.615234, 3109.230713, 16204.000000, 8133.000000, 8352.000000, 0.000000, 0.000000, 0.000000, 3.000000, 262.400024, 1557649292.699414, 4.000000, 4.000000, 4.000000, 0.000000, 4.000000
104.000000, 0.000000, 3795.384521, 3823.589600, 3888.717773, 4034.871582, 3111.794678, 450.000000, 8142.000000, 8338.000000, 0.000000, 0.000000, 0.000000, 3.000000, 270.400024, 1557649292.707414, 4.000000, 4.000000, 4.000000, 0.000000, 4.000000
105.000000, 0.000000, 3806.666504, 3830.256348, 3874.358887, 4044.615234, 3117.435791, 450.000000, 8133.000000, 8346.000000, 0.000000, 0.000000, 0.000000, 3.000000, 278.300049, 1557649292.715314, 4.000000, 4.000000, 4.000000, 0.000000, 4.000000
106.000000, 0.000000, 3811.281982, 3840.000000, 3872.307617, 4058.974365, 3123.589600, 450.000000, 8136.000000, 8353.000000, 0.000000, 0.000000, 0.000000, 3.000000, 286.100037, 1557649292.723114, 4.000000, 4.000000, 4.000000, 0.000000, 4.000000
107.000000, 0.000000, 3800.000000, 3853.333252, 3890.769043, 4047.692139, 3127.692139, 16204.000000, 8137.000000, 8344.000000, 0.000000, 0.000000, 0.000000, 3.000000, 293.800049, 1557649292.730814, 4.000000, 4.000000, 4.000000, 0.000000, 4.000000
108.000000, 0.000000, 3798.461426, 3865.640869, 3909.743408, 4031.794678, 3128.717773, 450.000000, 8140.000000, 8345.000000, 0.000000, 0.000000, 0.000000, 3.000000, 301.600037, 1557649292.738614, 4.000000, 4.000000, 4.000000, 0.000000, 4.000000
109.000000, 0.000000, 3814.358887, 3882.051270, 3922.051270, 4030.256348, 3143.589600, 450.000000, 8143.000000, 8355.000000, 0.000000, 0.000000, 0.000000, 3.000000, 309.500000, 1557649292.746514, 4.000000, 4.000000, 4.000000, 0.000000, 4.000000
110.000000, 0.000000, 3827.179443, 3887.179443, 3936.410156, 4047.179443, 3168.717773, 450.000000, 8140.000000, 8351.000000, 0.000000, 0.000000, 0.000000, 3.000000, 317.400024, 1557649292.754414, 4.000000, 4.000000, 4.000000, 0.000000, 4.000000
111.000000, 0.000000, 3816.410156, 3867.692139, 3937.435791, 4062.563965, 3163.589600, 16204.000000, 8151.000000, 8352.000000, 0.000000, 0.000000, 0.000000, 3.000000, 325.400024, 1557649292.762414, 4.000000, 4.000000, 4.000000, 0.000000, 4.000000
112.000000, 0.000000, 3796.923096, 3860.000000, 3926.666504, 4052.820313, 3155.384521, 450.000000, 8146.000000, 8360.000000, 0.000000, 0.000000, 0.000000, 3.000000, 333.300024, 1557649292.770314, 4.000000, 4.000000, 4.000000, 0.000000, 4.000000
113.000000, 0.000000, 3808.717773, 3874.871582, 3909.230713, 4030.256348, 3175.384521, 450.000000, 8151.000000, 8353.000000, 0.000000, 0.000000, 0.000000, 3.000000, 341.300024, 1557649292.778314, 4.000000, 4.000000, 4.000000, 0.000000, 4.000000
114.000000, 0.000000, 3838.461426, 3887.179443, 3894.358887, 4031.281982, 3190.769043, 450.000000, 8150.000000, 8346.000000, 0.000000, 0.000000, 0.000000, 3.000000, 349.200024, 1557649292.786214, 4.000000, 4.000000, 4.000000, 0.000000, 4.000000
115.000000, 0.000000, 3841.025635, 3902.563965, 3900.512695, 4041.025635, 3202.051270, 16204.000000, 8139.000000, 8355.000000, 0.000000, 0.000000, 0.000000, 3.000000, 357.000023, 1557649292.794014, 4.000000, 4.000000, 4.000000, 0.000000, 4.000000
116.000000, 0.000000, 3826.666504, 3913.333252, 3906.153809, 4028.205078, 3223.076904, 450.000000, 8139.000000, 8352.000000, 0.000000, 0.000000, 0.000000, 3.000000, 364.700024, 1557649292.801714, 4.000000, 4.000000, 4.000000, 0.000000, 4.000000
117.000000, 0.000000, 3832.307617, 3908.205078, 3886.666504, 4026.153809, 3225.640869, 450.000000, 8143.000000, 8348.000000, 0.000000, 0.000000, 0.000000, 3.000000, 372.500023, 1557649292.809514, 4.000000, 4.000000, 4.000000, 0.000000, 4.000000
118.000000, 0.000000, 3831.794678, 3909.743408, 3859.487061, 4034.358887, 3212.307617, 450.000000, 8140.000000, 8351.000000, 0.000000, 0.000000, 0.000000, 3.000000, 380.500023, 1557649292.817514, 4.000000, 4.000000, 4.000000, 0.000000, 4.000000
119.000000, 0.000000, 3814.871582, 3916.410156, 3851.281982, 4040.512695, 3227.179443, 16204.000000, 8134.000000, 8354.000000, 0.000000, 0.000000, 0.000000, 3.000000, 388.400024, 1557649292.825414, 4.000000, 4.000000, 4.000000, 0.000000, 4.000000
120.000000, 0.000000, 3804.615234, 3905.640869, 3843.076904, 4037.948730, 3248.205078, 450.000000, 8138.000000, 8348.000000, 0.000000, 0.000000, 0.000000, 3.000000, 396.400024, 1557649292.833414, 4.000000, 4.000000, 4.000000, 0.000000, 4.000000
121.000000, 0.000000, 3802.563965, 3907.692139, 3838.461426, 4028.717773, 3247.692139, 450.000000, 8134.000000, 8339.000000, 0.000000, 0.000000, 0.000000, 3.000000, 404.300026, 1557649292.841314, 4.000000, 4.000000, 4.000000, 0.000000, 4.000000
122.000000, 0.000000, 3799.487061, 3934.358887, 3853.333252, 4024.102539, 3258.974365, 450.000000, 8130.000000, 8349.000000, 0.000000, 0.000000, 0.000000, 3.000000, 412.300026, 1557649292.849314, 4.000000, 4.000000, 4.000000, 0.000000, 4.000000
123.000000, 0.000000, 3796.410156, 3946.666504, 3866.666504, 4030.256348, 3286.153809, 16204.000000, 8139.000000, 8351.000000, 0.000000, 0.000000, 0.000000, 3.000000, 420.000023, 1557649292.857014, 4.000000, 4.000000, 4.000000, 0.000000, 4.000000
124.000000, 0.000000, 3788.717773, 3940.000000, 3868.717773, 4033.845947, 3295.384521, 450.000000, 8135.000000, 8342.000000, 0.000000, 0.000000, 0.000000, 3.000000, 427.800026, 1557649292.864814, 4.000000, 4.000000, 4.000000, 0.000000, 4.000000
125.000000, 0.000000, 3771.794678, 3937.435791, 3868.717773, 4031.281982, 3292.307617, 450.000000, 8128.000000, 8350.000000, 0.000000, 0.000000, 0.000000, 3.000000, 435.600021, 1557649292.872614, 4.000000, 4.000000, 4.000000, 0.000000, 4.000000
126.000000, 0.000000, 3767.692139, 3951.794678, 3871.794678, 4039.487061, 3314.871826, 450.000000, 8136.000000, 8346.000000, 0.000000, 0.000000, 0.000000, 3.000000, 443.400024, 1557649292.880414, 4.000000, 4.000000, 4.000000, 0.000000, 4.000000
127.000000, 0.000000, 3781.025635, 3968.205078, 3862.563965, 4042.051270, 3343.076904, 16204.000000, 8142.000000, 8336.000000, 0.000000, 0.000000, 0.000000, 3.000000, 451.400024, 1557649292.888414, 4.000000, 4.000000, 4.000000, 0.000000, 4.000000
128.000000, 0.000000, 3786.153809, 3967.179443, 3848.717773, 4040.000000, 3355.897461, 500.000000, 8135.000000, 8342.000000, 0.000000, 0.000000, 0.000000, 3.000000, 459.300018, 1557649292.896314, 4.000000, 4.000000, 4.000000, 0.000000, 4.000000
0.000000, 0.000000, 3779.487061, 3966.153809, 3846.153809, 4046.666504, 3366.666504, 500.000000, 8133.000000, 8342.000000, 0.000000, 0.000000, 0.000000, 3.000000, 467.300018, 1557649292.904314, 4.000000, 4.000000, 4.000000, 0.000000, 4.000000
1.000000, 0.000000, 3788.205078, 3984.615234, 3853.845947, 4046.153809, 3381.025635, 500.000000, 8137.000000, 8341.000000, 0.000000, 0.000000, 0.000000, 3.000000, 475.200027, 1557649292.912214, 4.000000, 4.000000, 4.000000, 0.000000, 4.000000
2.000000, 0.000000, 3805.128174, 3992.820313, 3868.205078, 4044.102539, 3398.461426, 16194.000000, 8139.000000, 8337.000000, 0.000000, 0.000000, 0.000000, 3.000000, 483.000031, 1557649292.920014, 4.000000, 4.000000, 4.000000, 0.000000, 4.000000
3.000000, 0.000000, 3803.076904, 3987.179443, 3872.820313, 4046.666504, 3412.307617, 500.000000, 8137.000000, 8346.000000, 0.000000, 0.000000, 0.000000, 3.000000, 490.700027, 1557649292.927714, 4.000000, 4.000000, 4.000000, 0.000000, 4.000000
4.000000, 0.000000, 3793.333252, 3998.974365, 3859.487061, 4049.743408, 3418.974365, 16162.000000, 8138.000000, 8336.000000, 0.000000, 0.000000, 0.000000, 3.000000, 498.500031, 1557649292.935514, 4.000000, 4.000000, 4.000000, 0.000000, 4.000000
5.000000, 0.000000, 3794.871582, 4011.794678, 3848.717773, 4056.410156, 3432.307617, 500.000000, 8136.000000, 8334.000000, 0.000000, 0.000000, 0.000000, 3.000000, 506.500031, 1557649292.943514, 4.000000, 4.000000, 4.000000, 0.000000, 4.000000
6.000000, 0.000000, 3808.717773, 4020.512695, 3850.256348, 4062.051270, 3455.384521, 16154.000000, 8134.000000, 8346.000000, 0.000000, 0.000000, 0.000000, 3.000000, 514.400024, 1557649292.951414, 4.000000, 4.000000, 4.000000, 0.000000, 4.000000
7.000000, 0.000000, 3797.948730, 4029.230713, 3832.820313, 4036.923096, 3449.230713, 500.000000, 8140.000000, 8347.000000, 0.000000, 0.000000, 0.000000, 3.000000, 522.400024, 1557649292.959414, 4.000000, 4.000000, 4.000000, 0.000000, 4.000000
8.000000, 0.000000, 3766.666504, 4018.974365, 3803.076904, 4016.923096, 3429.230713, 500.000000, 8148.000000, 8335.000000, 0.000000, 0.000000, 0.000000, 3.000000, 530.300018, 1557649292.967314, 4.000000, 4.000000, 4.000000, 0.000000, 4.000000
9.000000, 0.000000, 3787.179443, 4016.410156, 3814.871582, 4046.153809, 3465.640869, 3.000000, 8137.000000, 8333.000000, 0.000000, 0.000000, 0.000000, 3.000000, 538.300018, 1557649292.975314, 4.000000, 4.000000, 4.000000, 0.000000, 4.000000
10.000000, 0.000000, 3850.769043, 4045.128174, 3849.743408, 4066.666504, 3529.743408, 500.000000, 8135.000000, 8335.000000, 0.000000, 0.000000, 0.000000, 3.000000, 546.000031, 1557649292.983014, 4.000000, 4.000000, 4.000000, 0.000000, 4.000000
11.000000, 0.000000, 3892.820313, 4078.461426, 3846.666504, 4054.871582, 3560.000000, 16200.000000, 8137.000000, 8327.000000, 0.000000, 0.000000, 0.000000, 3.000000, 553.800018, 1557649292.990814, 4.000000, 4.000000, 4.000000, 0.000000, 4.000000
12.000000, 0.000000, 3917.948730, 4095.384521, 3806.666504, 4062.563965, 3577.948730, 500.000000, 8141.000000, 8333.000000, 0.000000, 0.000000, 0.000000, 3.000000, 561.600021, 1557649292.998614, 4.000000, 4.000000, 4.000000, 0.000000, 4.000000
13.000000, 0.000000, 3933.333252, 4087.179443, 3765.640869, 4062.563965, 3598.974365, 500.000000, 8138.000000, 8344.000000, 0.000000, 0.000000, 0.000000, 3.000000, 569.400024, 1557649293.006414, 4.000000, 4.000000, 4.000000, 0.000000, 4.000000
14.000000, 0.000000, 3921.025635, 4068.717773, 3742.051270, 4041.538330, 3594.871826, 450.000000, 8137.000000, 8337.000000, 0.000000, 0.000000, 0.000000, 3.000000, 577.400024, 1557649293.014414, 4.000000, 4.000000, 4.000000, 0.000000, 4.000000
15.000000, 0.000000, 3909.743408, 4076.923096, 3726.666504, 4052.307617, 3588.205078, 16200.000000, 8142.000000, 8336.000000, 0.000000, 0.000000, 0.000000, 3.000000, 585.300018, 1557649293.022314, 4.000000, 4.000000, 4.000000, 0.000000, 4.000000
16.000000, 0.000000, 3915.384521, 4103.589844, 3714.358887, 4071.794678, 3600.000000, 0.000000, 8141.000000, 8334.000000, 0.000000, 0.000000, 0.000000, 3.000000, 593.300018, 1557649293.030314, 4.000000, 4.000000, 4.000000, 0.000000, 4.000000
17.000000, 0.000000, 3920.000000, 4107.692383, 3717.435791, 4067.179443, 3605.128174, 0.000000, 8146.000000, 8332.000000, 0.000000, 0.000000, 0.000000, 3.000000, 601.200012, 1557649293.038214, 4.000000, 4.000000, 4.000000, 0.000000, 4.000000
18.000000, 0.000000, 3917.948730, 4102.563965, 3726.666504, 4062.563965, 3609.743408, 0.000000, 8148.000000, 8340.000000, 0.000000, 0.000000, 0.000000, 3.000000, 609.200012, 1557649293.046214, 4.000000, 4.000000, 4.000000, 0.000000, 4.000000
19.000000, 0.000000, 3908.717773, 4113.846191, 3732.307617, 4060.000000, 3618.461426, 0.000000, 8145.000000, 8344.000000, 0.000000, 0.000000, 0.000000, 3.000000, 616.900024, 1557649293.053914, 4.000000, 4.000000, 4.000000, 0.000000, 4.000000
20.000000, 0.000000, 3905.640869, 4125.641113, 3745.640869, 4058.461426, 3620.512695, 0.000000, 8149.000000, 8344.000000, 0.000000, 0.000000, 0.000000, 3.000000, 624.600037, 1557649293.061614, 4.000000, 4.000000, 4.000000, 0.000000, 4.000000
21.000000, 0.000000, 3907.179443, 4130.769043, 3755.384521, 4070.256348, 3630.256348, 0.000000, 8146.000000, 8333.000000, 0.000000, 0.000000, 0.000000, 3.000000, 632.500031, 1557649293.069514, 4.000000, 4.000000, 4.000000, 0.000000, 4.000000
22.000000, 0.000000, 3895.384521, 4134.871582, 3748.717773, 4075.384521, 3653.845947, 0.000000, 8143.000000, 8337.000000, 0.000000, 0.000000, 0.000000, 3.000000, 640.400024, 1557649293.077414, 4.000000, 4.000000, 4.000000, 0.000000, 4.000000
23.000000, 0.000000, 3888.717773, 4144.102539, 3758.974365, 4071.281982, 3671.281982, 0.000000, 8136.000000, 8349.000000, 0.000000, 0.000000, 0.000000, 3.000000, 648.400024, 1557649293.085414, 4.000000, 4.000000, 4.000000, 0.000000, 4.000000
24.000000, 0.000000, 3895.384521, 4141.538574, 3775.384521, 4069.743408, 3668.717773, 0.000000, 8145.000000, 8351.000000, 0.000000, 0.000000, 0.000000, 3.000000, 656.300018, 1557649293.093314, 4.000000, 4.000000, 4.000000, 0.000000, 4.000000
25.000000, 0.000000, 3891.794678, 4130.256348, 3766.666504, 4063.076904, 3662.051270, 0.000000, 8143.000000, 8339.000000, 0.000000, 0.000000, 0.000000, 3.000000, 664.300018, 1557649293.101314, 4.000000, 4.000000, 4.000000, 0.000000, 4.000000
26.000000, 0.000000, 3889.743408, 4140.000000, 3760.512695, 4058.974365, 3674.358887, 0.000000, 8141.000000, 8350.000000, 0.000000, 0.000000, 0.000000, 3.000000, 672.200012, 1557649293.109214, 4.000000, 4.000000, 4.000000, 0.000000, 4.000000
27.000000, 0.000000, 3894.871582, 4158.461426, 3757.948730, 4057.435791, 3695.384521, 0.000000, 8141.000000, 8348.000000, 0.000000, 0.000000, 0.000000, 3.000000, 680.000031, 1557649293.117014, 4.000000, 4.000000, 4.000000, 0.000000, 4.000000
28.000000, 0.000000, 3889.230713, 4149.743652, 3730.769043, 4057.948730, 3695.897461, 0.000000, 8137.000000, 8348.000000, 0.000000, 0.000000, 0.000000, 3.000000, 687.700012, 1557649293.124714, 4.000000, 4.000000, 4.000000, 0.000000, 4.000000
29.000000, 0.000000, 3888.717773, 4136.922852, 3725.640869, 4069.743408, 3689.743408, 0.000000, 8141.000000, 8348.000000, 0.000000, 0.000000, 0.000000, 3.000000, 695.500031, 1557649293.132514, 4.000000, 4.000000, 4.000000, 0.000000, 4.000000
30.000000, 0.000000, 3908.205078, 4161.538574, 3773.333252, 4072.820313, 3707.692139, 0.000000, 8143.000000, 8347.000000, 0.000000, 0.000000, 0.000000, 3.000000, 703.500031, 1557649293.140514, 4.000000, 4.000000, 4.000000, 0.000000, 4.000000
31.000000, 0.000000, 3918.974365, 4189.743652, 3808.205078, 4058.461426, 3735.897461, 0.000000, 8147.000000, 8345.000000, 0.000000, 0.000000, 0.000000, 3.000000, 711.400024, 1557649293.148414, 4.000000, 4.000000, 4.000000, 0.000000, 4.000000
32.000000, 0.000000, 3909.743408, 4188.205078, 3808.717773, 4060.000000, 3746.153809, 0.000000, 8137.000000, 8353.000000, 0.000000, 0.000000, 0.000000, 3.000000, 719.400024, 1557649293.156414, 4.000000, 4.000000, 4.000000, 0.000000, 4.000000
33.000000, 0.000000, 3913.845947, 4189.230469, 3814.358887, 4076.410156, 3750.769043, 0.000000, 8142.000000, 8347.000000, 0.000000, 0.000000, 0.000000, 3.000000, 727.300018, 1557649293.164314, 4.000000, 4.000000, 4.000000, 0.000000, 4.000000
34.000000, 0.000000, 3932.820313, 4209.230469, 3819.487061, 4078.461426, 3768.205078, 0.000000, 8147.000000, 8345.000000, 0.000000, 0.000000, 0.000000, 3.000000, 735.300018, 1557649293.172314, 4.000000, 4.000000, 4.000000, 0.000000, 4.000000
35.000000, 0.000000, 3943.589600, 4221.025391, 3816.410156, 4073.333252, 3787.692139, 0.000000, 8145.000000, 8347.000000, 0.000000, 0.000000, 0.000000, 3.000000, 743.200012, 1557649293.180214, 4.000000, 4.000000, 4.000000, 0.000000, 4.000000
36.000000, 0.000000, 3948.717773, 4215.897461, 3812.820313, 4072.820313, 3790.769043, 0.000000, 8140.000000, 8353.000000, 0.000000, 0.000000, 0.000000, 3.000000, 750.900024, 1557649293.187914, 4.000000, 4.000000, 4.000000, 0.000000, 4.000000
37.000000, 0.000000, 3958.461426, 4220.000000, 3816.923096, 4072.307617, 3801.538330, 0.000000, 8149.000000, 8354.000000, 0.000000, 0.000000, 0.000000, 3.000000, 758.700012, 1557649293.195714, 4.000000, 4.000000, 4.000000, 0.000000, 4.000000
38.000000, 0.000000, 3973.845947, 4232.820313, 3825.128174, 4074.358887, 3826.153809, 0.000000, 8149.000000, 8346.000000, 0.000000, 0.000000, 0.000000, 3.000000, 766.500031, 1557649293.203514, 4.000000, 4.000000, 4.000000, 0.000000, 4.000000
39.000000, 0.000000, 3968.205078, 4224.615234, 3814.358887, 4077.948730, 3824.615234, 0.000000, 8145.000000, 8347.000000, 0.000000, 0.000000, 0.000000, 3.000000, 774.500031, 1557649293.211514, 4.000000, 4.000000, 4.000000, 0.000000, 4.000000
40.000000, 0.000000, 3954.871582, 4220.000000, 3802.563965, 4071.794678, 3814.871582, 0.000000, 8140.000000, 8352.000000, 0.000000, 0.000000, 0.000000, 3.000000, 782.400024, 1557649293.219414, 4.000000, 4.000000, 4.000000, 0.000000, 4.000000
41.000000, 0.000000, 3976.410156, 4239.487305, 3819.487061, 4069.743408, 3835.897461, 0.000000, 8143.000000, 8347.000000, 0.000000, 0.000000, 0.000000, 3.000000, 790.400024, 1557649293.227414, 4.000000, 4.000000, 4.000000, 0.000000, 4.000000
42.000000, 0.000000, 4001.538330, 4253.846191, 3830.256348, 4083.076904, 3863.589600, 0.000000, 8138.000000, 8351.000000, 0.000000, 0.000000, 0.000000, 3.000000, 798.300018, 1557649293.235314, 4.000000, 4.000000, 4.000000, 0.000000, 4.000000
43.000000, 0.000000, 3994.871582, 4259.487305, 3815.897461, 4088.717773, 3865.640869, 0.000000, 8139.000000, 8356.000000, 0.000000, 0.000000, 0.000000, 3.000000, 806.300018, 1557649293.243314, 4.000000, 4.000000, 4.000000, 0.000000, 4.000000
44.000000, 0.000000, 3978.974365, 4259.487305, 3797.435791, 4071.794678, 3853.845947, 0.000000, 8136.000000, 8354.000000, 0.000000, 0.000000, 0.000000, 3.000000, 814.000031, 1557649293.251014, 4.000000, 4.000000, 4.000000, 0.000000, 4.000000
45.000000, 0.000000, 3982.051270, 4245.641113, 3778.974365, 4064.102539, 3861.538330, 0.000000, 8137.000000, 8363.000000, 0.000000, 0.000000, 0.000000, 3.000000, 821.700012, 1557649293.258714, 4.000000, 4.000000, 4.000000, 0.000000, 4.000000
46.000000, 0.000000, 3993.845947, 4236.410156, 3764.615234, 4078.974365, 3889.743408, 0.000000, 8135.000000, 8364.000000, 0.000000, 0.000000, 0.000000, 3.000000, 829.600037, 1557649293.266614, 4.000000, 4.000000, 4.000000, 0.000000, 4.000000
47.000000, 0.000000, 4014.871582, 4259.487305, 3771.281982, 4091.794678, 3918.974365, 0.000000, 8139.000000, 8364.000000, 0.000000, 0.000000, 0.000000, 3.000000, 837.400024, 1557649293.274414, 4.000000, 4.000000, 4.000000, 0.000000, 4.000000
48.000000, 0.000000, 4037.435791, 4297.948730, 3783.076904, 4090.769043, 3936.410156, 0.000000, 8137.000000, 8363.000000, 0.000000, 0.000000, 0.000000, 3.000000, 845.400024, 1557649293.282414, 4.000000, 4.000000, 4.000000, 0.000000, 4.000000
49.000000, 0.000000, 4044.615234, 4313.333008, 3784.102539, 4083.589600, 3954.871582, 0.000000, 8135.000000, 8368.000000, 0.000000, 0.000000, 0.000000, 3.000000, 853.300049, 1557649293.290314, 4.000000, 4.000000, 4.000000, 0.000000, 4.000000
50.000000, 0.000000, 4049.743408, 4314.358887, 3783.589600, 4090.256348, 3982.563965, 0.000000, 8139.000000, 8378.000000, 0.000000, 0.000000, 0.000000, 3.000000, 861.300049, 1557649293.298314, 4.000000, 4.000000, 4.000000, 0.000000, 4.000000
