title:deepak happy 2, recorded:12.05.19 07.47.06, timestamp started:2019-05-12T07:47:06.006490+05:30, sampling:128, subject:, labels:COUNTER INTERPOLATED AF3 T7 Pz T8 AF4 RAW_CQ GYROX GYROY MARKER MARKER_HARDWARE SYNC TIME_STAMP_s TIME_STAMP_ms TimeStamp CQ_AF3 CQ_T7 CQ_Pz CQ_T8 CQ_AF4, chan:20, samples:15664, units:emotiv
96.000000, 0.000000, 4267.179199, 4322.051270, 4019.487061, 4001.025635, 4009.230713, 450.000000, 8133.000000, 8361.000000, 2.000000, 3.000000, 0.000000, 0.000000, 0.000000, 1557627426.006491, 4.000000, 4.000000, 2.000000, 4.000000, 4.000000
97.000000, 0.000000, 4281.025391, 4329.230469, 4022.563965, 4011.794678, 4020.000000, 450.000000, 8130.000000, 8355.000000, 0.000000, 0.000000, 0.000000, 0.000000, 7.799988, 1557627426.014291, 4.000000, 4.000000, 2.000000, 4.000000, 4.000000
98.000000, 0.000000, 4284.102539, 4332.820313, 4018.461426, 4009.743408, 3998.974365, 450.000000, 8134.000000, 8349.000000, 0.000000, 0.000000, 0.000000, 0.000000, 15.599976, 1557627426.022091, 4.000000, 4.000000, 2.000000, 4.000000, 4.000000
99.000000, 0.000000, 4270.769043, 4329.743652, 4026.666504, 4010.256348, 3996.410156, 16166.000000, 8140.000000, 8349.000000, 0.000000, 0.000000, 0.000000, 0.000000, 23.599976, 1557627426.030091, 4.000000, 4.000000, 2.000000, 4.000000, 4.000000
100.000000, 0.000000, 4268.717773, 4328.205078, 4035.384521, 4023.076904, 4011.281982, 450.000000, 8138.000000, 8359.000000, 0.000000, 0.000000, 0.000000, 0.000000, 31.599976, 1557627426.038091, 4.000000, 4.000000, 2.000000, 4.000000, 4.000000
101.000000, 0.000000, 4277.436035, 4325.641113, 4037.435791, 4026.666504, 4003.076904, 450.000000, 8147.000000, 8346.000000, 0.000000, 0.000000, 0.000000, 0.000000, 39.500000, 1557627426.045991, 4.000000, 4.000000, 2.000000, 4.000000, 4.000000
102.000000, 0.000000, 4278.461426, 4327.179199, 4039.487061, 4022.051270, 3998.974365, 450.000000, 8146.000000, 8346.000000, 0.000000, 0.000000, 0.000000, 0.000000, 47.500000, 1557627426.053991, 4.000000, 4.000000, 2.000000, 4.000000, 4.000000
103.000000, 0.000000, 4285.641113, 4345.641113, 4045.128174, 4035.384521, 4018.461426, 16166.000000, 8149.000000, 8354.000000, 0.000000, 0.000000, 0.000000, 0.000000, 55.500000, 1557627426.061991, 4.000000, 4.000000, 2.000000, 4.000000, 4.000000
104.000000, 0.000000, 4300.512695, 4356.922852, 4047.692139, 4047.692139, 4017.948730, 450.000000, 8152.000000, 8351.000000, 0.000000, 0.000000, 0.000000, 0.000000, 63.200012, 1557627426.069691, 4.000000, 4.000000, 2.000000, 4.000000, 4.000000
105.000000, 0.000000, 4304.615234, 4336.922852, 4042.051270, 4039.487061, 4000.512695, 450.000000, 8151.000000, 8348.000000, 0.000000, 0.000000, 0.000000, 0.000000, 71.000000, 1557627426.077491, 4.000000, 4.000000, 2.000000, 4.000000, 4.000000
106.000000, 0.000000, 4290.769043, 4320.512695, 4034.358887, 4028.205078, 4006.666504, 450.000000, 8147.000000, 8353.000000, 0.000000, 0.000000, 0.000000, 0.000000, 78.700012, 1557627426.085191, 4.000000, 4.000000, 2.000000, 4.000000, 4.000000
107.000000, 0.000000, 4282.563965, 4326.153809, 4033.333252, 4025.640869, 4015.384521, 16166.000000, 8150.000000, 8347.000000, 0.000000, 0.000000, 0.000000, 0.000000, 86.700012, 1557627426.093191, 4.000000, 4.000000, 2.000000, 4.000000, 4.000000
108.000000, 0.000000, 4273.333008, 4330.769043, 4034.358887, 4021.025635, 4003.589600, 450.000000, 8153.000000, 8343.000000, 0.000000, 0.000000, 0.000000, 0.000000, 94.700012, 1557627426.101191, 4.000000, 4.000000, 2.000000, 4.000000, 4.000000
109.000000, 0.000000, 4265.127930, 4334.871582, 4036.923096, 4017.948730, 4003.589600, 450.000000, 8152.000000, 8351.000000, 0.000000, 0.000000, 0.000000, 0.000000, 102.599976, 1557627426.109091, 4.000000, 4.000000, 2.000000, 4.000000, 4.000000
110.000000, 0.000000, 4282.563965, 4337.948730, 4038.974365, 4021.538330, 4017.948730, 450.000000, 8140.000000, 8352.000000, 0.000000, 0.000000, 0.000000, 0.000000, 110.599976, 1557627426.117091, 4.000000, 4.000000, 2.000000, 4.000000, 4.000000
111.000000, 0.000000, 4300.000000, 4338.461426, 4037.948730, 4019.487061, 4023.589600, 16166.000000, 8145.000000, 8343.000000, 0.000000, 0.000000, 0.000000, 0.000000, 118.399963, 1557627426.124891, 4.000000, 4.000000, 2.000000, 4.000000, 4.000000
112.000000, 0.000000, 4291.281738, 4344.102539, 4042.563965, 4025.128174, 4025.128174, 450.000000, 8145.000000, 8343.000000, 0.000000, 0.000000, 0.000000, 0.000000, 126.099976, 1557627426.132591, 4.000000, 4.000000, 2.000000, 4.000000, 4.000000
113.000000, 0.000000, 4289.230469, 4341.538574, 4043.589600, 4035.384521, 4021.538330, 450.000000, 8143.000000, 8351.000000, 0.000000, 0.000000, 0.000000, 0.000000, 133.899963, 1557627426.140391, 4.000000, 4.000000, 2.000000, 4.000000, 4.000000
114.000000, 0.000000, 4299.487305, 4328.717773, 4029.230713, 4026.666504, 4006.153809, 450.000000, 8145.000000, 8347.000000, 0.000000, 0.000000, 0.000000, 0.000000, 141.799988, 1557627426.148291, 4.000000, 4.000000, 2.000000, 4.000000, 4.000000
115.000000, 0.000000, 4280.512695, 4322.051270, 4014.358887, 4007.179443, 3989.743408, 16166.000000, 8144.000000, 8332.000000, 0.000000, 0.000000, 0.000000, 0.000000, 149.700012, 1557627426.156191, 4.000000, 4.000000, 2.000000, 4.000000, 4.000000
116.000000, 0.000000, 4253.846191, 4317.436035, 4022.563965, 4007.692139, 3989.743408, 450.000000, 8144.000000, 8331.000000, 0.000000, 0.000000, 0.000000, 0.000000, 157.700012, 1557627426.164191, 4.000000, 4.000000, 2.000000, 4.000000, 4.000000
117.000000, 0.000000, 4268.205078, 4321.538574, 4047.692139, 4025.640869, 4006.153809, 450.000000, 8137.000000, 8328.000000, 0.000000, 0.000000, 0.000000, 0.000000, 165.700012, 1557627426.172191, 4.000000, 4.000000, 2.000000, 4.000000, 4.000000
118.000000, 0.000000, 4288.205078, 4337.436035, 4059.487061, 4029.230713, 4018.461426, 450.000000, 8140.000000, 8313.000000, 0.000000, 0.000000, 0.000000, 0.000000, 173.599976, 1557627426.180091, 4.000000, 4.000000, 2.000000, 4.000000, 4.000000
119.000000, 0.000000, 4282.563965, 4339.487305, 4053.845947, 4022.563965, 4014.871582, 16166.000000, 8141.000000, 8312.000000, 0.000000, 0.000000, 0.000000, 0.000000, 181.599976, 1557627426.188091, 4.000000, 4.000000, 2.000000, 4.000000, 4.000000
120.000000, 0.000000, 4281.538574, 4335.897461, 4047.179443, 4025.640869, 4005.128174, 450.000000, 8143.000000, 8304.000000, 0.000000, 0.000000, 0.000000, 0.000000, 189.399963, 1557627426.195891, 4.000000, 4.000000, 2.000000, 4.000000, 4.000000
121.000000, 0.000000, 4296.922852, 4349.743652, 4048.205078, 4036.923096, 4006.153809, 450.000000, 8142.000000, 8300.000000, 0.000000, 0.000000, 0.000000, 0.000000, 197.099976, 1557627426.203591, 4.000000, 4.000000, 2.000000, 4.000000, 4.000000
122.000000, 0.000000, 4288.717773, 4342.051270, 4035.897217, 4030.769043, 4004.102539, 450.000000, 8139.000000, 8301.000000, 0.000000, 0.000000, 0.000000, 0.000000, 204.899963, 1557627426.211391, 4.000000, 4.000000, 2.000000, 4.000000, 4.000000
123.000000, 0.000000, 4265.127930, 4321.025391, 4020.512695, 4014.358887, 4002.051270, 16166.000000, 8144.000000, 8295.000000, 0.000000, 0.000000, 0.000000, 0.000000, 212.799988, 1557627426.219291, 4.000000, 4.000000, 2.000000, 4.000000, 4.000000
124.000000, 0.000000, 4270.256348, 4332.820313, 4039.487061, 4026.666504, 4016.923096, 450.000000, 8149.000000, 8289.000000, 0.000000, 0.000000, 0.000000, 0.000000, 220.700012, 1557627426.227191, 4.000000, 4.000000, 2.000000, 4.000000, 4.000000
125.000000, 0.000000, 4284.615234, 4344.615234, 4060.000000, 4046.666504, 4019.487061, 450.000000, 8144.000000, 8287.000000, 0.000000, 0.000000, 0.000000, 0.000000, 228.700012, 1557627426.235191, 4.000000, 4.000000, 2.000000, 4.000000, 4.000000
126.000000, 0.000000, 4283.076660, 4339.487305, 4047.179443, 4029.743408, 3997.948730, 450.000000, 8146.000000, 8289.000000, 0.000000, 0.000000, 0.000000, 0.000000, 236.700012, 1557627426.243191, 4.000000, 4.000000, 2.000000, 4.000000, 4.000000
127.000000, 0.000000, 4275.384277, 4344.102539, 4042.051270, 4015.384521, 4000.000000, 16166.000000, 8148.000000, 8291.000000, 0.000000, 0.000000, 0.000000, 0.000000, 244.599976, 1557627426.251091, 4.000000, 4.000000, 2.000000, 4.000000, 4.000000
128.000000, 0.000000, 4278.461426, 4347.692383, 4057.948730, 4036.923096, 4019.487061, 500.000000, 8155.000000, 8279.000000, 0.000000, 0.000000, 0.000000, 0.000000, 252.399963, 1557627426.258891, 4.000000, 4.000000, 2.000000, 4.000000, 4.000000
0.000000, 0.000000, 4281.025391, 4340.512695, 4051.794678, 4035.897217, 4007.179443, 500.000000, 8153.000000, 8277.000000, 0.000000, 0.000000, 0.000000, 0.000000, 260.200012, 1557627426.266691, 4.000000, 4.000000, 2.000000, 4.000000, 4.000000
1.000000, 0.000000, 4277.948730, 4340.000000, 4032.307617, 4014.358887, 3991.281982, 500.000000, 8153.000000, 8285.000000, 0.000000, 0.000000, 0.000000, 0.000000, 267.899963, 1557627426.274391, 4.000000, 4.000000, 2.000000, 4.000000, 4.000000
2.000000, 0.000000, 4282.051270, 4345.127930, 4041.025635, 4029.743408, 4011.794678, 16185.000000, 8155.000000, 8280.000000, 0.000000, 0.000000, 0.000000, 0.000000, 275.700012, 1557627426.282191, 4.000000, 4.000000, 2.000000, 4.000000, 4.000000
3.000000, 0.000000, 4285.641113, 4352.820313, 4053.845947, 4035.384521, 4021.538330, 500.000000, 8154.000000, 8275.000000, 0.000000, 0.000000, 0.000000, 0.000000, 283.599976, 1557627426.290091, 4.000000, 4.000000, 2.000000, 4.000000, 4.000000
4.000000, 0.000000, 4285.127930, 4354.871582, 4038.974365, 4006.153809, 3994.871582, 16105.000000, 8156.000000, 8285.000000, 0.000000, 0.000000, 0.000000, 0.000000, 291.599976, 1557627426.298091, 4.000000, 4.000000, 2.000000, 4.000000, 4.000000
5.000000, 0.000000, 4278.974121, 4348.205078, 4031.281982, 4003.589600, 3988.717773, 500.000000, 8152.000000, 8287.000000, 0.000000, 0.000000, 0.000000, 0.000000, 299.599976, 1557627426.306091, 4.000000, 4.000000, 2.000000, 4.000000, 4.000000
6.000000, 0.000000, 4280.512695, 4352.820313, 4042.051270, 4025.128174, 4006.153809, 284.000000, 8148.000000, 8297.000000, 0.000000, 0.000000, 0.000000, 0.000000, 307.500000, 1557627426.313991, 4.000000, 4.000000, 2.000000, 4.000000, 4.000000
7.000000, 0.000000, 4297.436035, 4365.641113, 4044.102539, 4030.256348, 3997.435791, 500.000000, 8157.000000, 8305.000000, 0.000000, 0.000000, 0.000000, 0.000000, 315.299988, 1557627426.321791, 4.000000, 4.000000, 2.000000, 4.000000, 4.000000
8.000000, 0.000000, 4310.256348, 4371.794922, 4044.102539, 4038.974365, 3986.153809, 500.000000, 8152.000000, 8300.000000, 0.000000, 0.000000, 0.000000, 0.000000, 323.099976, 1557627426.329591, 4.000000, 4.000000, 2.000000, 4.000000, 4.000000
9.000000, 0.000000, 4281.538574, 4351.281738, 4037.948730, 4039.487061, 3993.845947, 289.000000, 8155.000000, 8297.000000, 0.000000, 0.000000, 0.000000, 0.000000, 330.799988, 1557627426.337291, 4.000000, 4.000000, 2.000000, 4.000000, 4.000000
10.000000, 0.000000, 4250.769043, 4328.717773, 4035.384521, 4019.487061, 4002.051270, 500.000000, 8153.000000, 8299.000000, 0.000000, 0.000000, 0.000000, 0.000000, 338.700012, 1557627426.345191, 4.000000, 4.000000, 2.000000, 4.000000, 4.000000
11.000000, 0.000000, 4291.281738, 4356.922852, 4067.692139, 4040.512695, 4020.000000, 16171.000000, 8150.000000, 8291.000000, 0.000000, 0.000000, 0.000000, 0.000000, 346.699988, 1557627426.353191, 4.000000, 4.000000, 2.000000, 4.000000, 4.000000
12.000000, 0.000000, 4318.974121, 4376.922852, 4079.487061, 4068.717773, 4027.179443, 500.000000, 8154.000000, 8270.000000, 0.000000, 0.000000, 0.000000, 0.000000, 354.599988, 1557627426.361091, 4.000000, 4.000000, 2.000000, 4.000000, 4.000000
13.000000, 0.000000, 4283.076660, 4344.102539, 4037.435791, 4035.384521, 3998.461426, 500.000000, 8162.000000, 8261.000000, 0.000000, 0.000000, 0.000000, 0.000000, 362.599987, 1557627426.369091, 4.000000, 4.000000, 2.000000, 4.000000, 4.000000
14.000000, 0.000000, 4282.563965, 4342.563965, 4030.256348, 4020.000000, 3995.384521, 450.000000, 8164.000000, 8271.000000, 0.000000, 0.000000, 0.000000, 0.000000, 370.599987, 1557627426.377091, 4.000000, 4.000000, 2.000000, 4.000000, 4.000000
15.000000, 0.000000, 4323.589844, 4378.974121, 4053.333252, 4050.769043, 4012.307617, 16171.000000, 8158.000000, 8267.000000, 0.000000, 0.000000, 0.000000, 0.000000, 378.499989, 1557627426.384991, 4.000000, 4.000000, 2.000000, 4.000000, 4.000000
16.000000, 0.000000, 4302.051270, 4366.153809, 4034.358887, 4038.461426, 3987.179443, 0.000000, 8161.000000, 8255.000000, 0.000000, 0.000000, 0.000000, 0.000000, 386.299988, 1557627426.392791, 4.000000, 4.000000, 2.000000, 4.000000, 4.000000
17.000000, 0.000000, 4257.436035, 4335.897461, 4028.205078, 4014.871582, 3973.333252, 0.000000, 8154.000000, 8247.000000, 0.000000, 0.000000, 0.000000, 0.000000, 394.099987, 1557627426.400591, 4.000000, 4.000000, 2.000000, 4.000000, 4.000000
18.000000, 0.000000, 4267.692383, 4342.051270, 4048.205078, 4032.307617, 3995.384521, 0.000000, 8164.000000, 8256.000000, 0.000000, 0.000000, 0.000000, 0.000000, 401.799988, 1557627426.408291, 4.000000, 4.000000, 2.000000, 4.000000, 4.000000
19.000000, 0.000000, 4281.538574, 4358.974121, 4047.692139, 4042.563965, 4001.025635, 0.000000, 8167.000000, 8250.000000, 0.000000, 0.000000, 0.000000, 0.000000, 409.699989, 1557627426.416191, 4.000000, 4.000000, 2.000000, 4.000000, 4.000000
20.000000, 0.000000, 4285.641113, 4368.717773, 4052.820313, 4044.102539, 3994.871582, 0.000000, 8167.000000, 8245.000000, 0.000000, 0.000000, 0.000000, 0.000000, 417.699989, 1557627426.424191, 4.000000, 4.000000, 2.000000, 4.000000, 4.000000
21.000000, 0.000000, 4289.230469, 4366.153809, 4057.948730, 4041.025635, 3995.384521, 0.000000, 8176.000000, 8235.000000, 0.000000, 0.000000, 0.000000, 0.000000, 425.599991, 1557627426.432091, 4.000000, 4.000000, 2.000000, 4.000000, 4.000000
22.000000, 0.000000, 4282.051270, 4353.333008, 4035.384521, 4029.743408, 3996.923096, 0.000000, 8191.000000, 8223.000000, 0.000000, 0.000000, 0.000000, 0.000000, 433.599991, 1557627426.440091, 4.000000, 4.000000, 2.000000, 4.000000, 4.000000
23.000000, 0.000000, 4287.179199, 4355.897461, 4028.205078, 4031.794678, 3997.435791, 0.000000, 8181.000000, 8233.000000, 0.000000, 0.000000, 0.000000, 0.000000, 441.599991, 1557627426.448091, 4.000000, 4.000000, 2.000000, 4.000000, 4.000000
24.000000, 0.000000, 4292.820313, 4365.641113, 4039.487061, 4025.640869, 4000.000000, 0.000000, 8195.000000, 8224.000000, 0.000000, 0.000000, 0.000000, 0.000000, 449.299988, 1557627426.455791, 4.000000, 4.000000, 2.000000, 4.000000, 4.000000
25.000000, 0.000000, 4283.589844, 4364.615234, 4045.640869, 4017.948730, 4011.794678, 0.000000, 8201.000000, 8210.000000, 0.000000, 0.000000, 0.000000, 0.000000, 457.099991, 1557627426.463591, 4.000000, 4.000000, 2.000000, 4.000000, 4.000000
26.000000, 0.000000, 4295.384277, 4369.743652, 4062.051270, 4046.153809, 4017.948730, 0.000000, 8204.000000, 8202.000000, 0.000000, 0.000000, 0.000000, 0.000000, 464.899986, 1557627426.471391, 4.000000, 4.000000, 2.000000, 4.000000, 4.000000
27.000000, 0.000000, 4321.538574, 4380.512695, 4060.512695, 4067.179443, 4000.000000, 0.000000, 8206.000000, 8206.000000, 0.000000, 0.000000, 0.000000, 0.000000, 472.699989, 1557627426.479191, 4.000000, 4.000000, 2.000000, 4.000000, 4.000000
28.000000, 0.000000, 4303.589844, 4370.256348, 4034.871582, 4041.538330, 3987.179443, 0.000000, 8220.000000, 8198.000000, 0.000000, 0.000000, 0.000000, 0.000000, 480.699982, 1557627426.487191, 4.000000, 4.000000, 2.000000, 4.000000, 4.000000
29.000000, 0.000000, 4284.615234, 4360.512695, 4042.563965, 4040.000000, 4005.128174, 0.000000, 8230.000000, 8182.000000, 0.000000, 0.000000, 0.000000, 0.000000, 488.599991, 1557627426.495091, 4.000000, 4.000000, 2.000000, 4.000000, 4.000000
30.000000, 0.000000, 4296.410156, 4374.358887, 4068.205078, 4066.666504, 4020.512695, 0.000000, 8236.000000, 8182.000000, 0.000000, 0.000000, 0.000000, 0.000000, 496.499985, 1557627426.502991, 4.000000, 4.000000, 2.000000, 4.000000, 4.000000
31.000000, 0.000000, 4291.794922, 4386.666504, 4059.487061, 4057.435791, 4022.563965, 0.000000, 8244.000000, 8191.000000, 0.000000, 0.000000, 0.000000, 0.000000, 504.499985, 1557627426.510991, 4.000000, 4.000000, 2.000000, 4.000000, 4.000000
32.000000, 0.000000, 4276.922852, 4380.000000, 4051.794678, 4036.923096, 4020.512695, 0.000000, 8249.000000, 8196.000000, 0.000000, 0.000000, 0.000000, 0.000000, 512.199982, 1557627426.518691, 4.000000, 4.000000, 2.000000, 4.000000, 4.000000
33.000000, 0.000000, 4277.948730, 4370.769043, 4066.153809, 4040.000000, 4009.743408, 0.000000, 8265.000000, 8197.000000, 0.000000, 0.000000, 0.000000, 0.000000, 519.999985, 1557627426.526491, 4.000000, 4.000000, 2.000000, 4.000000, 4.000000
34.000000, 0.000000, 4286.666504, 4370.769043, 4064.102539, 4049.743408, 4004.102539, 0.000000, 8269.000000, 8195.000000, 0.000000, 0.000000, 0.000000, 0.000000, 527.899994, 1557627426.534391, 4.000000, 4.000000, 2.000000, 4.000000, 4.000000
35.000000, 0.000000, 4275.897461, 4367.692383, 4049.230713, 4041.025635, 4006.153809, 0.000000, 8284.000000, 8202.000000, 0.000000, 0.000000, 0.000000, 0.000000, 535.599991, 1557627426.542091, 4.000000, 4.000000, 2.000000, 4.000000, 4.000000
36.000000, 0.000000, 4262.051270, 4356.410156, 4044.615234, 4027.179443, 4001.538330, 0.000000, 8291.000000, 8213.000000, 0.000000, 0.000000, 0.000000, 0.000000, 543.599991, 1557627426.550091, 4.000000, 4.000000, 2.000000, 4.000000, 4.000000
37.000000, 0.000000, 4281.538574, 4354.871582, 4043.076904, 4037.948730, 4005.128174, 0.000000, 8288.000000, 8220.000000, 0.000000, 0.000000, 0.000000, 0.000000, 551.599991, 1557627426.558091, 4.000000, 4.000000, 2.000000, 4.000000, 4.000000
38.000000, 0.000000, 4306.153809, 4357.435547, 4037.435791, 4051.281982, 4018.461426, 0.000000, 8291.000000, 8218.000000, 0.000000, 0.000000, 0.000000, 0.000000, 559.499985, 1557627426.565991, 4.000000, 4.000000, 2.000000, 4.000000, 4.000000
39.000000, 0.000000, 4301.025391, 4353.846191, 4028.205078, 4045.128174, 4017.435791, 0.000000, 8293.000000, 8213.000000, 0.000000, 0.000000, 0.000000, 0.000000, 567.499985, 1557627426.573991, 4.000000, 4.000000, 2.000000, 4.000000, 4.000000
40.000000, 0.000000, 4292.307617, 4358.461426, 4022.563965, 4027.692139, 3998.461426, 0.000000, 8292.000000, 8229.000000, 0.000000, 0.000000, 0.000000, 0.000000, 575.499985, 1557627426.581991, 4.000000, 4.000000, 2.000000, 4.000000, 4.000000
41.000000, 0.000000, 4296.922852, 4363.589844, 4032.820313, 4028.717773, 4001.025635, 0.000000, 8272.000000, 8240.000000, 0.000000, 0.000000, 0.000000, 0.000000, 583.199982, 1557627426.589691, 4.000000, 4.000000, 2.000000, 4.000000, 4.000000
42.000000, 0.000000, 4287.692383, 4343.076660, 4043.076904, 4052.307617, 4015.384521, 0.000000, 8277.000000, 8233.000000, 0.000000, 0.000000, 0.000000, 0.000000, 590.999985, 1557627426.597491, 4.000000, 4.000000, 2.000000, 4.000000, 4.000000
43.000000, 0.000000, 4281.538574, 4340.512695, 4045.640869, 4061.538330, 4011.281982, 0.000000, 8269.000000, 8249.000000, 0.000000, 0.000000, 0.000000, 0.000000, 598.799988, 1557627426.605291, 4.000000, 4.000000, 2.000000, 4.000000, 4.000000
44.000000, 0.000000, 4285.641113, 4368.717773, 4054.871582, 4047.692139, 4009.743408, 0.000000, 8264.000000, 8262.000000, 0.000000, 0.000000, 0.000000, 0.000000, 606.699982, 1557627426.613191, 4.000000, 4.000000, 2.000000, 4.000000, 4.000000
45.000000, 0.000000, 4279.487305, 4373.333008, 4065.640869, 4043.076904, 4020.000000, 0.000000, 8255.000000, 8271.000000, 0.000000, 0.000000, 0.000000, 0.000000, 614.699982, 1557627426.621191, 4.000000, 4.000000, 2.000000, 4.000000, 4.000000
46.000000, 0.000000, 4282.051270, 4355.384277, 4057.435791, 4050.256348, 4023.076904, 0.000000, 8237.000000, 8275.000000, 0.000000, 0.000000, 0.000000, 0.000000, 622.699982, 1557627426.629191, 4.000000, 4.000000, 2.000000, 4.000000, 4.000000
47.000000, 0.000000, 4293.846191, 4353.846191, 4038.461426, 4038.461426, 4009.743408, 0.000000, 8243.000000, 8276.000000, 0.000000, 0.000000, 0.000000, 0.000000, 630.599976, 1557627426.637091, 4.000000, 4.000000, 2.000000, 4.000000, 4.000000
48.000000, 0.000000, 4286.153809, 4368.205078, 4039.487061, 4030.256348, 4008.717773, 0.000000, 8225.000000, 8277.000000, 0.000000, 0.000000, 0.000000, 0.000000, 638.599976, 1557627426.645091, 4.000000, 4.000000, 2.000000, 4.000000, 4.000000
49.000000, 0.000000, 4275.384277, 4362.051270, 4043.076904, 4046.153809, 4018.461426, 0.000000, 8214.000000, 8284.000000, 0.000000, 0.000000, 0.000000, 0.000000, 646.599976, 1557627426.653091, 4.000000, 4.000000, 2.000000, 4.000000, 4.000000
50.000000, 0.000000, 4278.461426, 4344.615234, 4026.666504, 4041.538330, 4006.666504, 0.000000, 8214.000000, 8285.000000, 0.000000, 0.000000, 0.000000, 0.000000, 654.299988, 1557627426.660791, 4.000000, 4.000000, 2.000000, 4.000000, 4.000000
51.000000, 0.000000, 4270.769043, 4341.538574, 4032.307617, 4021.538330, 3998.461426, 0.000000, 8212.000000, 8281.000000, 0.000000, 0.000000, 0.000000, 0.000000, 662.099976, 1557627426.668591, 4.000000, 4.000000, 2.000000, 4.000000, 4.000000
52.000000, 0.000000, 4257.948730, 4344.102539, 4060.512695, 4018.974365, 4007.692139, 0.000000, 8196.000000, 8288.000000, 0.000000, 0.000000, 0.000000, 0.000000, 669.899994, 1557627426.676391, 4.000000, 4.000000, 2.000000, 4.000000, 4.000000
53.000000, 0.000000, 4267.692383, 4340.000000, 4052.307617, 4030.256348, 4001.538330, 0.000000, 8188.000000, 8304.000000, 0.000000, 0.000000, 0.000000, 0.000000, 677.799988, 1557627426.684291, 4.000000, 4.000000, 2.000000, 4.000000, 4.000000
54.000000, 0.000000, 4282.051270, 4340.512695, 4030.769043, 4041.025635, 3985.128174, 0.000000, 8172.000000, 8311.000000, 0.000000, 0.000000, 0.000000, 0.000000, 685.699982, 1557627426.692191, 4.000000, 4.000000, 2.000000, 4.000000, 4.000000
55.000000, 0.000000, 4278.461426, 4351.281738, 4047.179443, 4042.563965, 3996.923096, 0.000000, 8172.000000, 8304.000000, 0.000000, 0.000000, 0.000000, 0.000000, 693.699982, 1557627426.700191, 4.000000, 4.000000, 2.000000, 4.000000, 4.000000
56.000000, 0.000000, 4274.358887, 4361.538574, 4062.563965, 4038.461426, 4015.384521, 0.000000, 8158.000000, 8320.000000, 0.000000, 0.000000, 0.000000, 0.000000, 701.599976, 1557627426.708091, 4.000000, 4.000000, 2.000000, 4.000000, 4.000000
57.000000, 0.000000, 4286.153809, 4373.846191, 4051.281982, 4037.948730, 4012.307617, 0.000000, 8150.000000, 8328.000000, 0.000000, 0.000000, 0.000000, 0.000000, 709.599976, 1557627426.716091, 4.000000, 4.000000, 2.000000, 4.000000, 4.000000
58.000000, 0.000000, 4298.461426, 4366.666504, 4042.051270, 4037.435791, 4013.333252, 0.000000, 8138.000000, 8328.000000, 0.000000, 0.000000, 0.000000, 0.000000, 717.299988, 1557627426.723791, 4.000000, 4.000000, 2.000000, 4.000000, 4.000000
59.000000, 0.000000, 4285.641113, 4340.000000, 4037.435791, 4029.743408, 4011.281982, 0.000000, 8134.000000, 8326.000000, 0.000000, 0.000000, 0.000000, 0.000000, 725.099976, 1557627426.731591, 4.000000, 4.000000, 2.000000, 4.000000, 4.000000
60.000000, 0.000000, 4273.846191, 4338.974121, 4030.769043, 4025.128174, 3998.974365, 0.000000, 8128.000000, 8334.000000, 0.000000, 0.000000, 0.000000, 0.000000, 732.899994, 1557627426.739391, 4.000000, 4.000000, 2.000000, 4.000000, 4.000000
61.000000, 0.000000, 4288.717773, 4353.333008, 4030.769043, 4034.358887, 4011.281982, 0.000000, 8122.000000, 8330.000000, 0.000000, 0.000000, 0.000000, 0.000000, 740.599976, 1557627426.747091, 4.000000, 4.000000, 2.000000, 4.000000, 4.000000
62.000000, 0.000000, 4289.743652, 4335.384277, 4026.666504, 4044.102539, 4028.205078, 0.000000, 8120.000000, 8335.000000, 0.000000, 0.000000, 0.000000, 0.000000, 748.599976, 1557627426.755091, 4.000000, 4.000000, 2.000000, 4.000000, 4.000000
63.000000, 0.000000, 4273.846191, 4319.487305, 4022.563965, 4046.666504, 4012.307617, 0.000000, 8121.000000, 8344.000000, 0.000000, 0.000000, 0.000000, 0.000000, 756.599976, 1557627426.763091, 4.000000, 4.000000, 2.000000, 4.000000, 4.000000
64.000000, 0.000000, 4286.153809, 4344.615234, 4040.512695, 4053.845947, 4012.307617, 500.000000, 8127.000000, 8339.000000, 0.000000, 0.000000, 0.000000, 0.000000, 764.500000, 1557627426.770991, 4.000000, 4.000000, 2.000000, 4.000000, 4.000000
65.000000, 0.000000, 4300.000000, 4355.384277, 4048.717773, 4061.025635, 4030.256348, 500.000000, 8127.000000, 8337.000000, 0.000000, 0.000000, 0.000000, 0.000000, 772.500000, 1557627426.778991, 4.000000, 4.000000, 2.000000, 4.000000, 4.000000
66.000000, 0.000000, 4283.589844, 4336.410156, 4031.794678, 4049.743408, 4015.384521, 16197.000000, 8125.000000, 8340.000000, 0.000000, 0.000000, 0.000000, 0.000000, 780.500000, 1557627426.786991, 4.000000, 4.000000, 2.000000, 4.000000, 4.000000
67.000000, 0.000000, 4280.000000, 4331.794922, 4028.205078, 4041.025635, 4001.538330, 500.000000, 8130.000000, 8338.000000, 0.000000, 0.000000, 0.000000, 0.000000, 788.199982, 1557627426.794691, 4.000000, 4.000000, 2.000000, 4.000000, 4.000000
68.000000, 0.000000, 4301.025391, 4344.102539, 4041.025635, 4056.410156, 4014.358887, 16111.000000, 8141.000000, 8328.000000, 0.000000, 0.000000, 0.000000, 0.000000, 796.000000, 1557627426.802491, 4.000000, 4.000000, 2.000000, 4.000000, 4.000000
69.000000, 0.000000, 4298.461426, 4345.641113, 4040.000000, 4056.410156, 4012.307617, 500.000000, 8150.000000, 8336.000000, 0.000000, 0.000000, 0.000000, 0.000000, 803.799988, 1557627426.810291, 4.000000, 4.000000, 2.000000, 4.000000, 4.000000
70.000000, 0.000000, 4276.410156, 4332.820313, 4029.743408, 4035.897217, 3995.897217, 284.000000, 8156.000000, 8346.000000, 0.000000, 0.000000, 0.000000, 0.000000, 811.599976, 1557627426.818091, 4.000000, 4.000000, 2.000000, 4.000000, 4.000000
71.000000, 0.000000, 4273.846191, 4332.820313, 4034.871582, 4032.820313, 3995.384521, 500.000000, 8156.000000, 8341.000000, 0.000000, 0.000000, 0.000000, 0.000000, 819.599976, 1557627426.826091, 4.000000, 4.000000, 2.000000, 4.000000, 4.000000
72.000000, 0.000000, 4289.743652, 4353.333008, 4052.307617, 4039.487061, 4009.743408, 500.000000, 8153.000000, 8336.000000, 0.000000, 0.000000, 0.000000, 0.000000, 827.599976, 1557627426.834091, 4.000000, 4.000000, 2.000000, 4.000000, 4.000000
73.000000, 0.000000, 4294.358887, 4357.948730, 4058.974365, 4039.487061, 4026.153809, 297.000000, 8158.000000, 8337.000000, 0.000000, 0.000000, 0.000000, 0.000000, 835.500000, 1557627426.841991, 4.000000, 4.000000, 2.000000, 4.000000, 4.000000
74.000000, 0.000000, 4293.333008, 4345.641113, 4043.589600, 4042.051270, 4024.615234, 500.000000, 8158.000000, 8338.000000, 0.000000, 0.000000, 0.000000, 0.000000, 843.500000, 1557627426.849991, 4.000000, 4.000000, 2.000000, 4.000000, 4.000000
75.000000, 0.000000, 4291.794922, 4349.743652, 4035.384521, 4048.717773, 4013.333252, 16158.000000, 8150.000000, 8342.000000, 0.000000, 0.000000, 0.000000, 0.000000, 851.299988, 1557627426.857791, 4.000000, 4.000000, 2.000000, 4.000000, 4.000000
76.000000, 0.000000, 4291.281738, 4360.512695, 4046.153809, 4045.640869, 4014.871582, 500.000000, 8147.000000, 8347.000000, 0.000000, 0.000000, 0.000000, 0.000000, 859.000000, 1557627426.865491, 4.000000, 4.000000, 2.000000, 4.000000, 4.000000
77.000000, 0.000000, 4291.281738, 4354.871582, 4049.743408, 4037.948730, 4014.358887, 500.000000, 8145.000000, 8346.000000, 0.000000, 0.000000, 0.000000, 0.000000, 866.799988, 1557627426.873291, 4.000000, 4.000000, 2.000000, 4.000000, 4.000000
78.000000, 0.000000, 4285.641113, 4345.127930, 4053.333252, 4041.538330, 4015.384521, 450.000000, 8142.000000, 8341.000000, 0.000000, 0.000000, 0.000000, 0.000000, 874.799988, 1557627426.881291, 4.000000, 4.000000, 2.000000, 4.000000, 4.000000
79.000000, 0.000000, 4292.820313, 4343.589844, 4065.128174, 4049.230713, 4030.256348, 16158.000000, 8131.000000, 8346.000000, 0.000000, 0.000000, 0.000000, 0.000000, 882.700012, 1557627426.889191, 4.000000, 4.000000, 2.000000, 4.000000, 4.000000
80.000000, 0.000000, 4310.769043, 4352.820313, 4054.871582, 4043.589600, 4029.743408, 450.000000, 8129.000000, 8346.000000, 0.000000, 0.000000, 0.000000, 0.000000, 890.700012, 1557627426.897191, 4.000000, 4.000000, 2.000000, 4.000000, 4.000000
81.000000, 0.000000, 4308.205078, 4355.897461, 4041.025635, 4044.102539, 4021.538330, 450.000000, 8132.000000, 8338.000000, 0.000000, 0.000000, 0.000000, 0.000000, 898.700012, 1557627426.905191, 4.000000, 4.000000, 2.000000, 4.000000, 4.000000
82.000000, 0.000000, 4292.307617, 4343.076660, 4045.128174, 4054.358887, 4025.128174, 450.000000, 8128.000000, 8344.000000, 0.000000, 0.000000, 0.000000, 0.000000, 906.599976, 1557627426.913091, 4.000000, 4.000000, 2.000000, 4.000000, 4.000000
83.000000, 0.000000, 4293.333008, 4335.384277, 4049.230713, 4043.076904, 4033.845947, 16158.000000, 8125.000000, 8354.000000, 0.000000, 0.000000, 0.000000, 0.000000, 914.399963, 1557627426.920891, 4.000000, 4.000000, 2.000000, 4.000000, 4.000000
84.000000, 0.000000, 4305.127930, 4335.384277, 4047.179443, 4033.845947, 4042.051270, 450.000000, 8118.000000, 8356.000000, 0.000000, 0.000000, 0.000000, 0.000000, 922.200012, 1557627426.928691, 4.000000, 4.000000, 2.000000, 4.000000, 4.000000
85.000000, 0.000000, 4307.179199, 4336.922852, 4042.563965, 4043.589600, 4041.025635, 450.000000, 8122.000000, 8346.000000, 0.000000, 0.000000, 0.000000, 0.000000, 929.899963, 1557627426.936391, 4.000000, 4.000000, 2.000000, 4.000000, 4.000000
86.000000, 0.000000, 4313.333008, 4346.153809, 4044.102539, 4042.563965, 4034.358887, 450.000000, 8122.000000, 8347.000000, 0.000000, 0.000000, 0.000000, 0.000000, 937.700012, 1557627426.944191, 4.000000, 4.000000, 2.000000, 4.000000, 4.000000
87.000000, 0.000000, 4316.410156, 4349.230469, 4050.769043, 4038.974365, 4036.923096, 16158.000000, 8127.000000, 8349.000000, 0.000000, 0.000000, 0.000000, 0.000000, 945.599976, 1557627426.952091, 4.000000, 4.000000, 2.000000, 4.000000, 4.000000
88.000000, 0.000000, 4298.974121, 4335.897461, 4040.000000, 4037.948730, 4025.640869, 450.000000, 8124.000000, 8356.000000, 0.000000, 0.000000, 0.000000, 0.000000, 953.599976, 1557627426.960091, 4.000000, 4.000000, 2.000000, 4.000000, 4.000000
89.000000, 0.000000, 4280.000000, 4330.256348, 4026.666504, 4030.769043, 4002.051270, 450.000000, 8125.000000, 8354.000000, 0.000000, 0.000000, 0.000000, 0.000000, 961.599976, 1557627426.968091, 4.000000, 4.000000, 2.000000, 4.000000, 4.000000
90.000000, 0.000000, 4290.256348, 4345.127930, 4048.205078, 4032.307617, 4017.948730, 450.000000, 8126.000000, 8364.000000, 0.000000, 0.000000, 0.000000, 0.000000, 969.500000, 1557627426.975991, 4.000000, 4.000000, 2.000000, 4.000000, 4.000000
91.000000, 0.000000, 4300.512695, 4353.846191, 4065.640869, 4032.820313, 4041.538330, 16158.000000, 8132.000000, 8357.000000, 0.000000, 0.000000, 0.000000, 0.000000, 977.299988, 1557627426.983791, 4.000000, 4.000000, 2.000000, 4.000000, 4.000000
92.000000, 0.000000, 4284.615234, 4340.000000, 4049.230713, 4017.435791, 4026.666504, 450.000000, 8133.000000, 8352.000000, 0.000000, 0.000000, 0.000000, 0.000000, 985.099976, 1557627426.991591, 4.000000, 4.000000, 2.000000, 4.000000, 4.000000
93.000000, 0.000000, 4280.512695, 4336.922852, 4044.615234, 4020.512695, 4019.487061, 450.000000, 8135.000000, 8361.000000, 0.000000, 0.000000, 0.000000, 0.000000, 992.799988, 1557627426.999291, 4.000000, 4.000000, 2.000000, 4.000000, 4.000000
94.000000, 0.000000, 4303.589844, 4358.461426, 4056.923096, 4043.589600, 4031.281982, 450.000000, 8140.000000, 8357.000000, 0.000000, 0.000000, 0.000000, 1.000000, 0.599976, 1557627427.007091, 4.000000, 4.000000, 2.000000, 4.000000, 4.000000
95.000000, 0.000000, 4315.897461, 4358.461426, 4057.948730, 4049.743408, 4035.384521, 16158.000000, 8145.000000, 8357.000000, 0.000000, 0.000000, 0.000000, 1.000000, 8.599976, 1557627427.015091, 4.000000, 4.000000, 2.000000, 4.000000, 4.000000
96.000000, 0.000000, 4295.384277, 4325.641113, 4047.179443, 4027.179443, 4032.820313, 450.000000, 8138.000000, 8363.000000, 0.000000, 0.000000, 0.000000, 1.000000, 16.500000, 1557627427.022991, 4.000000, 4.000000, 2.000000, 4.000000, 4.000000
97.000000, 0.000000, 4278.974121, 4317.948730, 4033.333252, 4013.845947, 4032.307617, 450.000000, 8146.000000, 8366.000000, 0.000000, 0.000000, 0.000000, 1.000000, 24.500000, 1557627427.030991, 4.000000, 4.000000, 2.000000, 4.000000, 4.000000
98.000000, 0.000000, 4298.461426, 4350.769043, 4034.871582, 4034.871582, 4044.102539, 450.000000, 8145.000000, 8356.000000, 0.000000, 0.000000, 0.000000, 1.000000, 32.500000, 1557627427.038991, 4.000000, 4.000000, 2.000000, 4.000000, 4.000000
99.000000, 0.000000, 4315.897461, 4361.025391, 4049.743408, 4043.589600, 4048.205078, 16158.000000, 8137.000000, 8352.000000, 0.000000, 0.000000, 0.000000, 1.000000, 40.399963, 1557627427.046891, 4.000000, 4.000000, 2.000000, 4.000000, 4.000000
100.000000, 0.000000, 4305.127930, 4338.461426, 4042.563965, 4019.487061, 4024.615234, 450.000000, 8138.000000, 8358.000000, 0.000000, 0.000000, 0.000000, 1.000000, 48.200012, 1557627427.054691, 4.000000, 4.000000, 2.000000, 4.000000, 4.000000
101.000000, 0.000000, 4310.256348, 4346.666504, 4041.538330, 4021.025635, 4018.974365, 450.000000, 8141.000000, 8361.000000, 0.000000, 0.000000, 0.000000, 1.000000, 56.000000, 1557627427.062491, 4.000000, 4.000000, 2.000000, 4.000000, 4.000000
102.000000, 0.000000, 4327.692383, 4375.897461, 4064.102539, 4041.025635, 4049.230713, 450.000000, 8141.000000, 8361.000000, 0.000000, 0.000000, 0.000000, 1.000000, 63.700012, 1557627427.070191, 4.000000, 4.000000, 2.000000, 4.000000, 4.000000
103.000000, 0.000000, 4318.974121, 4365.127930, 4062.051270, 4033.845947, 4055.384521, 16158.000000, 8144.000000, 8362.000000, 0.000000, 0.000000, 0.000000, 1.000000, 71.700012, 1557627427.078191, 4.000000, 4.000000, 2.000000, 4.000000, 4.000000
104.000000, 0.000000, 4307.179199, 4335.384277, 4048.205078, 4040.000000, 4040.512695, 450.000000, 8148.000000, 8354.000000, 0.000000, 0.000000, 0.000000, 1.000000, 79.700012, 1557627427.086191, 4.000000, 4.000000, 2.000000, 4.000000, 4.000000
105.000000, 0.000000, 4305.127930, 4336.410156, 4043.076904, 4042.563965, 4031.281982, 450.000000, 8145.000000, 8357.000000, 0.000000, 0.000000, 0.000000, 1.000000, 87.599976, 1557627427.094091, 4.000000, 4.000000, 2.000000, 4.000000, 4.000000
106.000000, 0.000000, 4290.256348, 4346.153809, 4027.692139, 4007.692139, 4014.871582, 450.000000, 8147.000000, 8365.000000, 0.000000, 0.000000, 0.000000, 1.000000, 95.599976, 1557627427.102091, 4.000000, 4.000000, 2.000000, 4.000000, 4.000000
107.000000, 0.000000, 4283.076660, 4335.384277, 4029.743408, 4006.666504, 4013.333252, 16158.000000, 8151.000000, 8361.000000, 0.000000, 0.000000, 0.000000, 1.000000, 103.599976, 1557627427.110091, 4.000000, 4.000000, 2.000000, 4.000000, 4.000000
108.000000, 0.000000, 4310.256348, 4334.871582, 4044.615234, 4038.461426, 4026.153809, 450.000000, 8151.000000, 8354.000000, 0.000000, 0.000000, 0.000000, 1.000000, 111.299988, 1557627427.117791, 4.000000, 4.000000, 2.000000, 4.000000, 4.000000
109.000000, 0.000000, 4331.281738, 4355.897461, 4042.563965, 4045.128174, 4037.948730, 450.000000, 8152.000000, 8360.000000, 0.000000, 0.000000, 0.000000, 1.000000, 119.099976, 1557627427.125591, 4.000000, 4.000000, 2.000000, 4.000000, 4.000000
110.000000, 0.000000, 4320.512695, 4361.025391, 4045.128174, 4036.410156, 4051.281982, 450.000000, 8155.000000, 8363.000000, 0.000000, 0.000000, 0.000000, 1.000000, 126.899963, 1557627427.133391, 4.000000, 4.000000, 2.000000, 4.000000, 4.000000
111.000000, 0.000000, 4312.307617, 4349.743652, 4058.974365, 4040.512695, 4051.281982, 16158.000000, 8160.000000, 8350.000000, 0.000000, 0.000000, 0.000000, 1.000000, 134.599976, 1557627427.141091, 4.000000, 4.000000, 2.000000, 4.000000, 4.000000
112.000000, 0.000000, 4307.692383, 4351.794922, 4064.615234, 4038.974365, 4038.461426, 450.000000, 8157.000000, 8347.000000, 0.000000, 0.000000, 0.000000, 1.000000, 142.599976, 1557627427.149091, 4.000000, 4.000000, 2.000000, 4.000000, 4.000000
113.000000, 0.000000, 4299.487305, 4356.410156, 4067.692139, 4036.410156, 4034.358887, 450.000000, 8153.000000, 8359.000000, 0.000000, 0.000000, 0.000000, 1.000000, 150.599976, 1557627427.157091, 4.000000, 4.000000, 2.000000, 4.000000, 4.000000
114.000000, 0.000000, 4304.102539, 4345.641113, 4069.743408, 4041.538330, 4038.461426, 450.000000, 8161.000000, 8352.000000, 0.000000, 0.000000, 0.000000, 1.000000, 158.500000, 1557627427.164991, 4.000000, 4.000000, 2.000000, 4.000000, 4.000000
115.000000, 0.000000, 4305.127930, 4334.358887, 4057.435791, 4040.000000, 4039.487061, 16158.000000, 8157.000000, 8346.000000, 0.000000, 0.000000, 0.000000, 1.000000, 166.500000, 1557627427.172991, 4.000000, 4.000000, 2.000000, 4.000000, 4.000000
116.000000, 0.000000, 4300.512695, 4344.102539, 4050.769043, 4037.948730, 4043.076904, 450.000000, 8166.000000, 8341.000000, 0.000000, 0.000000, 0.000000, 1.000000, 174.200012, 1557627427.180691, 4.000000, 4.000000, 2.000000, 4.000000, 4.000000
117.000000, 0.000000, 4305.127930, 4364.102539, 4045.640869, 4023.589600, 4027.692139, 450.000000, 8166.000000, 8336.000000, 0.000000, 0.000000, 0.000000, 1.000000, 182.000000, 1557627427.188491, 4.000000, 4.000000, 2.000000, 4.000000, 4.000000
118.000000, 0.000000, 4303.589844, 4370.256348, 4040.512695, 4007.179443, 4013.845947, 450.000000, 8167.000000, 8329.000000, 0.000000, 0.000000, 0.000000, 1.000000, 189.799988, 1557627427.196291, 4.000000, 4.000000, 2.000000, 4.000000, 4.000000
119.000000, 0.000000, 4301.538574, 4352.307617, 4053.845947, 4023.076904, 4037.948730, 16158.000000, 8163.000000, 8324.000000, 0.000000, 0.000000, 0.000000, 1.000000, 197.700012, 1557627427.204191, 4.000000, 4.000000, 2.000000, 4.000000, 4.000000
120.000000, 0.000000, 4308.205078, 4338.461426, 4060.000000, 4041.538330, 4048.717773, 450.000000, 8172.000000, 8330.000000, 0.000000, 0.000000, 0.000000, 1.000000, 205.700012, 1557627427.212191, 4.000000, 4.000000, 2.000000, 4.000000, 4.000000
121.000000, 0.000000, 4305.127930, 4351.281738, 4057.435791, 4039.487061, 4043.589600, 450.000000, 8184.000000, 8318.000000, 0.000000, 0.000000, 0.000000, 1.000000, 213.700012, 1557627427.220191, 4.000000, 4.000000, 2.000000, 4.000000, 4.000000
122.000000, 0.000000, 4288.717773, 4357.948730, 4062.563965, 4034.358887, 4050.256348, 450.000000, 8177.000000, 8310.000000, 0.000000, 0.000000, 0.000000, 1.000000, 221.599976, 1557627427.228091, 4.000000, 4.000000, 2.000000, 4.000000, 4.000000
123.000000, 0.000000, 4280.000000, 4344.102539, 4060.000000, 4021.025635, 4046.153809, 16158.000000, 8174.000000, 8316.000000, 0.000000, 0.000000, 0.000000, 1.000000, 229.599976, 1557627427.236091, 4.000000, 4.000000, 2.000000, 4.000000, 4.000000
124.000000, 0.000000, 4281.025391, 4333.333008, 4051.794678, 4006.666504, 4031.281982, 450.000000, 8176.000000, 8306.000000, 0.000000, 0.000000, 0.000000, 1.000000, 237.599976, 1557627427.244091, 4.000000, 4.000000, 2.000000, 4.000000, 4.000000
125.000000, 0.000000, 4301.025391, 4335.384277, 4051.794678, 4028.205078, 4030.256348, 450.000000, 8186.000000, 8307.000000, 0.000000, 0.000000, 0.000000, 1.000000, 245.299988, 1557627427.251791, 4.000000, 4.000000, 2.000000, 4.000000, 4.000000
126.000000, 0.000000, 4319.487305, 4345.641113, 4053.845947, 4057.435791, 4031.794678, 450.000000, 8181.000000, 8313.000000, 0.000000, 0.000000, 0.000000, 1.000000, 253.099976, 1557627427.259591, 4.000000, 4.000000, 2.000000, 4.000000, 4.000000
127.000000, 0.000000, 4304.102539, 4350.256348, 4046.153809, 4045.640869, 4026.153809, 16158.000000, 8172.000000, 8314.000000, 0.000000, 0.000000, 0.000000, 1.000000, 260.899963, 1557627427.267391, 4.000000, 4.000000, 2.000000, 4.000000, 4.000000
128.000000, 0.000000, 4293.333008, 4343.076660, 4039.487061, 4025.128174, 4027.692139, 500.000000, 8170.000000, 8307.000000, 0.000000, 0.000000, 0.000000, 1.000000, 268.700012, 1557627427.275191, 4.000000, 4.000000, 2.000000, 4.000000, 4.000000
0.000000, 0.000000, 4299.487305, 4338.461426, 4038.461426, 4020.000000, 4027.692139, 500.000000, 8169.000000, 8310.000000, 0.000000, 0.000000, 0.000000, 1.000000, 276.599976, 1557627427.283091, 4.000000, 4.000000, 2.000000, 4.000000, 4.000000
1.000000, 0.000000, 4294.358887, 4349.230469, 4040.000000, 4016.410156, 4025.640869, 500.000000, 8169.000000, 8309.000000, 0.000000, 0.000000, 0.000000, 1.000000, 284.599976, 1557627427.291091, 4.000000, 4.000000, 2.000000, 4.000000, 4.000000
2.000000, 0.000000, 4288.717773, 4356.922852, 4036.923096, 4020.512695, 4024.615234, 16181.000000, 8158.000000, 8306.000000, 0.000000, 0.000000, 0.000000, 1.000000, 292.500000, 1557627427.298991, 4.000000, 4.000000, 2.000000, 4.000000, 4.000000
3.000000, 0.000000, 4292.307617, 4346.666504, 4027.179443, 4026.666504, 4009.230713, 500.000000, 8153.000000, 8312.000000, 0.000000, 0.000000, 0.000000, 1.000000, 300.500000, 1557627427.306991, 4.000000, 4.000000, 2.000000, 4.000000, 4.000000
4.000000, 0.000000, 4286.666504, 4332.820313, 4026.666504, 4028.717773, 4007.179443, 16111.000000, 8140.000000, 8311.000000, 0.000000, 0.000000, 0.000000, 1.000000, 308.299988, 1557627427.314791, 4.000000, 4.000000, 2.000000, 4.000000, 4.000000
5.000000, 0.000000, 4273.846191, 4329.230469, 4045.640869, 4031.794678, 4024.615234, 500.000000, 8143.000000, 8308.000000, 0.000000, 0.000000, 0.000000, 1.000000, 316.000000, 1557627427.322491, 4.000000, 4.000000, 2.000000, 4.000000, 4.000000
6.000000, 0.000000, 4281.025391, 4334.358887, 4051.281982, 4037.435791, 4022.051270, 283.000000, 8136.000000, 8312.000000, 0.000000, 0.000000, 0.000000, 1.000000, 323.799988, 1557627427.330291, 4.000000, 4.000000, 2.000000, 4.000000, 4.000000
7.000000, 0.000000, 4300.512695, 4336.922852, 4035.897217, 4038.461426, 4011.794678, 500.000000, 8132.000000, 8320.000000, 0.000000, 0.000000, 0.000000, 1.000000, 331.799988, 1557627427.338291, 4.000000, 4.000000, 2.000000, 4.000000, 4.000000
8.000000, 0.000000, 4300.512695, 4342.051270, 4044.102539, 4035.897217, 4031.281982, 500.000000, 8123.000000, 8324.000000, 0.000000, 0.000000, 0.000000, 1.000000, 339.599976, 1557627427.346091, 4.000000, 4.000000, 2.000000, 4.000000, 4.000000
9.000000, 0.000000, 4284.102539, 4346.153809, 4061.025635, 4031.281982, 4042.563965, 289.000000, 8120.000000, 8312.000000, 0.000000, 0.000000, 0.000000, 1.000000, 347.599988, 1557627427.354091, 4.000000, 4.000000, 2.000000, 4.000000, 4.000000
10.000000, 0.000000, 4276.410156, 4336.410156, 4041.538330, 4023.589600, 4020.000000, 500.000000, 8112.000000, 8326.000000, 0.000000, 0.000000, 0.000000, 1.000000, 355.599988, 1557627427.362091, 4.000000, 4.000000, 2.000000, 4.000000, 4.000000
11.000000, 0.000000, 4278.461426, 4329.230469, 4023.076904, 4017.435791, 4011.794678, 16131.000000, 8110.000000, 8334.000000, 0.000000, 0.000000, 0.000000, 1.000000, 363.499989, 1557627427.369991, 4.000000, 4.000000, 2.000000, 4.000000, 4.000000
12.000000, 0.000000, 4281.025391, 4332.307617, 4027.692139, 4017.435791, 4016.923096, 500.000000, 8116.000000, 8325.000000, 0.000000, 0.000000, 0.000000, 1.000000, 371.299988, 1557627427.377791, 4.000000, 4.000000, 2.000000, 4.000000, 4.000000
13.000000, 0.000000, 4293.846191, 4337.436035, 4035.384521, 4026.153809, 4017.948730, 500.000000, 8115.000000, 8328.000000, 0.000000, 0.000000, 0.000000, 1.000000, 379.099987, 1557627427.385591, 4.000000, 4.000000, 2.000000, 4.000000, 4.000000
14.000000, 0.000000, 4300.000000, 4343.076660, 4035.897217, 4027.692139, 4022.563965, 450.000000, 8124.000000, 8332.000000, 0.000000, 0.000000, 0.000000, 1.000000, 386.799988, 1557627427.393291, 4.000000, 4.000000, 2.000000, 4.000000, 4.000000
15.000000, 0.000000, 4277.948730, 4336.410156, 4031.794678, 4018.461426, 4024.102539, 16131.000000, 8129.000000, 8344.000000, 0.000000, 0.000000, 0.000000, 1.000000, 394.699989, 1557627427.401191, 4.000000, 4.000000, 2.000000, 4.000000, 4.000000
16.000000, 0.000000, 4274.871582, 4330.769043, 4035.384521, 4025.128174, 4021.538330, 0.000000, 8126.000000, 8350.000000, 0.000000, 0.000000, 0.000000, 1.000000, 402.699989, 1557627427.409191, 4.000000, 4.000000, 2.000000, 4.000000, 4.000000
17.000000, 0.000000, 4305.127930, 4346.153809, 4048.717773, 4033.333252, 4025.128174, 0.000000, 8124.000000, 8362.000000, 0.000000, 0.000000, 0.000000, 1.000000, 410.599991, 1557627427.417091, 4.000000, 4.000000, 2.000000, 4.000000, 4.000000
18.000000, 0.000000, 4314.871582, 4356.922852, 4052.307617, 4030.769043, 4038.974365, 0.000000, 8131.000000, 8366.000000, 0.000000, 0.000000, 0.000000, 1.000000, 418.599991, 1557627427.425091, 4.000000, 4.000000, 2.000000, 4.000000, 4.000000
19.000000, 0.000000, 4306.666504, 4342.051270, 4045.128174, 4039.487061, 4042.563965, 0.000000, 8143.000000, 8382.000000, 0.000000, 0.000000, 0.000000, 1.000000, 426.499985, 1557627427.432991, 4.000000, 4.000000, 2.000000, 4.000000, 4.000000
20.000000, 0.000000, 4306.666504, 4337.436035, 4046.153809, 4048.717773, 4034.871582, 0.000000, 8141.000000, 8394.000000, 0.000000, 0.000000, 0.000000, 1.000000, 434.299988, 1557627427.440791, 4.000000, 4.000000, 2.000000, 4.000000, 4.000000
21.000000, 0.000000, 4313.333008, 4351.281738, 4053.333252, 4036.923096, 4034.358887, 0.000000, 8135.000000, 8407.000000, 0.000000, 0.000000, 0.000000, 1.000000, 442.099991, 1557627427.448591, 4.000000, 4.000000, 2.000000, 4.000000, 4.000000
22.000000, 0.000000, 4317.436035, 4349.230469, 4054.871582, 4030.769043, 4044.102539, 0.000000, 8135.000000, 8398.000000, 0.000000, 0.000000, 0.000000, 1.000000, 449.799988, 1557627427.456291, 4.000000, 4.000000, 2.000000, 4.000000, 4.000000
23.000000, 0.000000, 4315.897461, 4331.281738, 4049.230713, 4045.640869, 4049.743408, 0.000000, 8144.000000, 8400.000000, 0.000000, 0.000000, 0.000000, 1.000000, 457.799988, 1557627427.464291, 4.000000, 4.000000, 2.000000, 4.000000, 4.000000
24.000000, 0.000000, 4311.281738, 4335.384277, 4043.589600, 4046.666504, 4046.666504, 0.000000, 8143.000000, 8412.000000, 0.000000, 0.000000, 0.000000, 1.000000, 465.599991, 1557627427.472091, 4.000000, 4.000000, 2.000000, 4.000000, 4.000000
25.000000, 0.000000, 4312.820313, 4352.307617, 4040.512695, 4032.307617, 4045.640869, 0.000000, 8145.000000, 8402.000000, 0.000000, 0.000000, 0.000000, 1.000000, 473.499985, 1557627427.479991, 4.000000, 4.000000, 2.000000, 4.000000, 4.000000
26.000000, 0.000000, 4314.871582, 4349.230469, 4038.974365, 4031.281982, 4040.512695, 0.000000, 8142.000000, 8395.000000, 0.000000, 0.000000, 0.000000, 1.000000, 481.499985, 1557627427.487991, 4.000000, 4.000000, 2.000000, 4.000000, 4.000000
27.000000, 0.000000, 4317.436035, 4344.615234, 4040.512695, 4048.717773, 4040.000000, 0.000000, 8142.000000, 8394.000000, 0.000000, 0.000000, 0.000000, 1.000000, 489.499985, 1557627427.495991, 4.000000, 4.000000, 2.000000, 4.000000, 4.000000
28.000000, 0.000000, 4315.384277, 4345.641113, 4045.128174, 4060.512695, 4050.256348, 0.000000, 8143.000000, 8388.000000, 0.000000, 0.000000, 0.000000, 1.000000, 497.399994, 1557627427.503891, 4.000000, 4.000000, 2.000000, 4.000000, 4.000000
29.000000, 0.000000, 4304.615234, 4341.025391, 4052.820313, 4056.923096, 4051.281982, 0.000000, 8145.000000, 8384.000000, 0.000000, 0.000000, 0.000000, 1.000000, 505.199982, 1557627427.511691, 4.000000, 4.000000, 2.000000, 4.000000, 4.000000
30.000000, 0.000000, 4312.307617, 4345.127930, 4058.461426, 4057.948730, 4038.461426, 0.000000, 8147.000000, 8386.000000, 0.000000, 0.000000, 0.000000, 1.000000, 512.999985, 1557627427.519491, 4.000000, 4.000000, 2.000000, 4.000000, 4.000000
31.000000, 0.000000, 4329.230469, 4354.358887, 4053.845947, 4056.923096, 4031.794678, 0.000000, 8150.000000, 8379.000000, 0.000000, 0.000000, 0.000000, 1.000000, 520.699982, 1557627427.527191, 4.000000, 4.000000, 2.000000, 4.000000, 4.000000
32.000000, 0.000000, 4326.666504, 4344.615234, 4049.230713, 4050.769043, 4040.512695, 0.000000, 8152.000000, 8377.000000, 0.000000, 0.000000, 0.000000, 1.000000, 528.599991, 1557627427.535091, 4.000000, 4.000000, 2.000000, 4.000000, 4.000000
33.000000, 0.000000, 4324.102539, 4341.538574, 4056.410156, 4057.948730, 4046.153809, 0.000000, 8147.000000, 8383.000000, 0.000000, 0.000000, 0.000000, 1.000000, 536.599991, 1557627427.543091, 4.000000, 4.000000, 2.000000, 4.000000, 4.000000
34.000000, 0.000000, 4323.589844, 4356.410156, 4056.410156, 4064.102539, 4042.563965, 0.000000, 8145.000000, 8389.000000, 0.000000, 0.000000, 0.000000, 1.000000, 544.499985, 1557627427.550991, 4.000000, 4.000000, 2.000000, 4.000000, 4.000000
35.000000, 0.000000, 4312.820313, 4354.358887, 4046.666504, 4052.307617, 4044.615234, 0.000000, 8149.000000, 8382.000000, 0.000000, 0.000000, 0.000000, 1.000000, 552.499985, 1557627427.558991, 4.000000, 4.000000, 2.000000, 4.000000, 4.000000
36.000000, 0.000000, 4308.205078, 4344.102539, 4053.845947, 4052.307617, 4054.358887, 0.000000, 8147.000000, 8372.000000, 0.000000, 0.000000, 0.000000, 1.000000, 560.499985, 1557627427.566991, 4.000000, 4.000000, 2.000000, 4.000000, 4.000000
37.000000, 0.000000, 4308.717773, 4349.743652, 4058.461426, 4057.948730, 4051.281982, 0.000000, 8146.000000, 8385.000000, 0.000000, 0.000000, 0.000000, 1.000000, 568.199982, 1557627427.574691, 4.000000, 4.000000, 2.000000, 4.000000, 4.000000
38.000000, 0.000000, 4311.794922, 4366.666504, 4047.179443, 4038.974365, 4038.974365, 0.000000, 8149.000000, 8381.000000, 0.000000, 0.000000, 0.000000, 1.000000, 575.999985, 1557627427.582491, 4.000000, 4.000000, 2.000000, 4.000000, 4.000000
39.000000, 0.000000, 4319.487305, 4370.769043, 4046.666504, 4029.743408, 4042.563965, 0.000000, 8147.000000, 8371.000000, 0.000000, 0.000000, 0.000000, 1.000000, 583.799988, 1557627427.590291, 4.000000, 4.000000, 2.000000, 4.000000, 4.000000
40.000000, 0.000000, 4322.563965, 4362.051270, 4055.897217, 4044.615234, 4050.256348, 0.000000, 8146.000000, 8378.000000, 0.000000, 0.000000, 0.000000, 1.000000, 591.699982, 1557627427.598191, 4.000000, 4.000000, 2.000000, 4.000000, 4.000000
41.000000, 0.000000, 4328.205078, 4355.897461, 4052.820313, 4045.640869, 4039.487061, 0.000000, 8146.000000, 8381.000000, 0.000000, 0.000000, 0.000000, 1.000000, 599.599991, 1557627427.606091, 4.000000, 4.000000, 2.000000, 4.000000, 4.000000
42.000000, 0.000000, 4335.384277, 4358.461426, 4045.128174, 4040.000000, 4023.076904, 0.000000, 8145.000000, 8379.000000, 0.000000, 0.000000, 0.000000, 1.000000, 607.599976, 1557627427.614091, 4.000000, 4.000000, 2.000000, 4.000000, 4.000000
43.000000, 0.000000, 4334.871582, 4364.615234, 4054.871582, 4056.410156, 4032.307617, 0.000000, 8144.000000, 8386.000000, 0.000000, 0.000000, 0.000000, 1.000000, 615.500000, 1557627427.621991, 4.000000, 4.000000, 2.000000, 4.000000, 4.000000
44.000000, 0.000000, 4338.974121, 4365.127930, 4060.000000, 4063.589600, 4043.076904, 0.000000, 8147.000000, 8383.000000, 0.000000, 0.000000, 0.000000, 1.000000, 623.500000, 1557627427.629991, 4.000000, 4.000000, 2.000000, 4.000000, 4.000000
45.000000, 0.000000, 4344.615234, 4357.948730, 4047.179443, 4049.230713, 4033.845947, 0.000000, 8147.000000, 8376.000000, 0.000000, 0.000000, 0.000000, 1.000000, 631.299988, 1557627427.637791, 4.000000, 4.000000, 2.000000, 4.000000, 4.000000
46.000000, 0.000000, 4336.922852, 4352.307617, 4040.512695, 4052.820313, 4028.205078, 0.000000, 8139.000000, 8381.000000, 0.000000, 0.000000, 0.000000, 1.000000, 639.000000, 1557627427.645491, 4.000000, 4.000000, 2.000000, 4.000000, 4.000000
47.000000, 0.000000, 4334.358887, 4360.512695, 4046.153809, 4065.128174, 4028.205078, 0.000000, 8142.000000, 8375.000000, 0.000000, 0.000000, 0.000000, 1.000000, 646.799988, 1557627427.653291, 4.000000, 4.000000, 2.000000, 4.000000, 4.000000
48.000000, 0.000000, 4343.076660, 4372.307617, 4050.769043, 4055.384521, 4029.743408, 0.000000, 8153.000000, 8366.000000, 0.000000, 0.000000, 0.000000, 1.000000, 654.699982, 1557627427.661191, 4.000000, 4.000000, 2.000000, 4.000000, 4.000000
49.000000, 0.000000, 4333.333008, 4370.769043, 4045.640869, 4043.589600, 4031.281982, 0.000000, 8147.000000, 8359.000000, 0.000000, 0.000000, 0.000000, 1.000000, 662.599976, 1557627427.669091, 4.000000, 4.000000, 2.000000, 4.000000, 4.000000
50.000000, 0.000000, 4309.743652, 4356.410156, 4042.563965, 4047.179443, 4029.743408, 0.000000, 8146.000000, 8366.000000, 0.000000, 0.000000, 0.000000, 1.000000, 670.599976, 1557627427.677091, 4.000000, 4.000000, 2.000000, 4.000000, 4.000000
51.000000, 0.000000, 4309.743652, 4344.615234, 4046.666504, 4047.179443, 4026.153809, 0.000000, 8151.000000, 8363.000000, 0.000000, 0.000000, 0.000000, 1.000000, 678.500000, 1557627427.684991, 4.000000, 4.000000, 2.000000, 4.000000, 4.000000
52.000000, 0.000000, 4332.307617, 4351.794922, 4046.153809, 4049.230713, 4033.333252, 0.000000, 8148.000000, 8346.000000, 0.000000, 0.000000, 0.000000, 1.000000, 686.500000, 1557627427.692991, 4.000000, 4.000000, 2.000000, 4.000000, 4.000000
53.000000, 0.000000, 4338.461426, 4362.051270, 4038.461426, 4055.384521, 4035.897217, 0.000000, 8149.000000, 8346.000000, 0.000000, 0.000000, 0.000000, 1.000000, 694.500000, 1557627427.700991, 4.000000, 4.000000, 2.000000, 4.000000, 4.000000
54.000000, 0.000000, 4320.512695, 4353.333008, 4033.333252, 4048.205078, 4020.512695, 0.000000, 8147.000000, 8350.000000, 0.000000, 0.000000, 0.000000, 1.000000, 702.199982, 1557627427.708691, 4.000000, 4.000000, 2.000000, 4.000000, 4.000000
55.000000, 0.000000, 4310.769043, 4344.102539, 4036.923096, 4045.128174, 4020.512695, 0.000000, 8152.000000, 8346.000000, 0.000000, 0.000000, 0.000000, 1.000000, 710.000000, 1557627427.716491, 4.000000, 4.000000, 2.000000, 4.000000, 4.000000
56.000000, 0.000000, 4318.461426, 4356.410156, 4048.205078, 4058.974365, 4033.845947, 0.000000, 8151.000000, 8357.000000, 0.000000, 0.000000, 0.000000, 1.000000, 717.799988, 1557627427.724291, 4.000000, 4.000000, 2.000000, 4.000000, 4.000000
57.000000, 0.000000, 4318.974121, 4368.205078, 4056.410156, 4064.102539, 4041.025635, 0.000000, 8155.000000, 8354.000000, 0.000000, 0.000000, 0.000000, 1.000000, 725.599976, 1557627427.732091, 4.000000, 4.000000, 2.000000, 4.000000, 4.000000
58.000000, 0.000000, 4309.743652, 4360.512695, 4054.358887, 4049.230713, 4036.923096, 0.000000, 8156.000000, 8357.000000, 0.000000, 0.000000, 0.000000, 1.000000, 733.599976, 1557627427.740091, 4.000000, 4.000000, 2.000000, 4.000000, 4.000000
59.000000, 0.000000, 4314.871582, 4354.358887, 4050.769043, 4046.153809, 4027.692139, 0.000000, 8158.000000, 8363.000000, 0.000000, 0.000000, 0.000000, 1.000000, 741.599976, 1557627427.748091, 4.000000, 4.000000, 2.000000, 4.000000, 4.000000
60.000000, 0.000000, 4318.461426, 4355.897461, 4043.076904, 4055.384521, 4027.179443, 0.000000, 8150.000000, 8368.000000, 0.000000, 0.000000, 0.000000, 1.000000, 749.500000, 1557627427.755991, 4.000000, 4.000000, 2.000000, 4.000000, 4.000000
61.000000, 0.000000, 4304.615234, 4352.820313, 4032.307617, 4045.640869, 4023.589600, 0.000000, 8150.000000, 8358.000000, 0.000000, 0.000000, 0.000000, 1.000000, 757.500000, 1557627427.763991, 4.000000, 4.000000, 2.000000, 4.000000, 4.000000
62.000000, 0.000000, 4306.153809, 4347.692383, 4032.307617, 4045.640869, 4019.487061, 0.000000, 8157.000000, 8359.000000, 0.000000, 0.000000, 0.000000, 1.000000, 765.299988, 1557627427.771791, 4.000000, 4.000000, 2.000000, 4.000000, 4.000000
63.000000, 0.000000, 4317.948730, 4349.743652, 4038.974365, 4062.051270, 4025.128174, 0.000000, 8151.000000, 8368.000000, 0.000000, 0.000000, 0.000000, 1.000000, 773.000000, 1557627427.779491, 4.000000, 4.000000, 2.000000, 4.000000, 4.000000
64.000000, 0.000000, 4298.461426, 4356.922852, 4037.435791, 4053.845947, 4028.205078, 500.000000, 8146.000000, 8375.000000, 0.000000, 0.000000, 0.000000, 1.000000, 780.799988, 1557627427.787291, 4.000000, 4.000000, 2.000000, 4.000000, 4.000000
65.000000, 0.000000, 4279.487305, 4362.051270, 4027.692139, 4037.948730, 4015.897217, 500.000000, 8144.000000, 8363.000000, 0.000000, 0.000000, 0.000000, 1.000000, 788.699982, 1557627427.795191, 4.000000, 4.000000, 2.000000, 4.000000, 4.000000
66.000000, 0.000000, 4286.666504, 4363.589844, 4024.102539, 4044.102539, 4004.102539, 16179.000000, 8144.000000, 8358.000000, 0.000000, 0.000000, 0.000000, 1.000000, 796.599976, 1557627427.803091, 4.000000, 4.000000, 2.000000, 4.000000, 4.000000
67.000000, 0.000000, 4296.410156, 4359.487305, 4025.640869, 4038.461426, 4005.128174, 500.000000, 8142.000000, 8370.000000, 0.000000, 0.000000, 0.000000, 1.000000, 804.599976, 1557627427.811091, 4.000000, 4.000000, 2.000000, 4.000000, 4.000000
68.000000, 0.000000, 4305.641113, 4345.641113, 4018.974365, 4030.256348, 4007.692139, 16110.000000, 8130.000000, 8367.000000, 0.000000, 0.000000, 0.000000, 1.000000, 812.599976, 1557627427.819091, 4.000000, 4.000000, 2.000000, 4.000000, 4.000000
69.000000, 0.000000, 4314.871582, 4338.461426, 4016.410156, 4049.743408, 4014.871582, 500.000000, 8127.000000, 8361.000000, 0.000000, 0.000000, 0.000000, 1.000000, 820.500000, 1557627427.826991, 4.000000, 4.000000, 2.000000, 4.000000, 4.000000
70.000000, 0.000000, 4327.692383, 4353.333008, 4029.230713, 4066.666504, 4024.102539, 283.000000, 8138.000000, 8364.000000, 0.000000, 0.000000, 0.000000, 1.000000, 828.500000, 1557627427.834991, 4.000000, 4.000000, 2.000000, 4.000000, 4.000000
71.000000, 0.000000, 4330.769043, 4364.102539, 4036.923096, 4067.179443, 4029.230713, 500.000000, 8137.000000, 8361.000000, 0.000000, 0.000000, 0.000000, 1.000000, 836.299988, 1557627427.842791, 4.000000, 4.000000, 2.000000, 4.000000, 4.000000
72.000000, 0.000000, 4304.615234, 4345.127930, 4036.923096, 4061.025635, 4033.333252, 500.000000, 8139.000000, 8364.000000, 0.000000, 0.000000, 0.000000, 1.000000, 844.000000, 1557627427.850491, 4.000000, 4.000000, 2.000000, 4.000000, 4.000000
73.000000, 0.000000, 4291.281738, 4341.025391, 4040.000000, 4051.281982, 4032.307617, 294.000000, 8140.000000, 8373.000000, 0.000000, 0.000000, 0.000000, 1.000000, 852.000000, 1557627427.858491, 4.000000, 4.000000, 2.000000, 4.000000, 4.000000
74.000000, 0.000000, 4318.974121, 4357.435547, 4033.333252, 4054.871582, 4020.000000, 500.000000, 8141.000000, 8366.000000, 0.000000, 0.000000, 0.000000, 1.000000, 859.799988, 1557627427.866291, 4.000000, 4.000000, 2.000000, 4.000000, 4.000000
75.000000, 0.000000, 4328.717773, 4351.794922, 4025.128174, 4066.666504, 4015.897217, 16171.000000, 8141.000000, 8371.000000, 0.000000, 0.000000, 0.000000, 1.000000, 867.700012, 1557627427.874191, 4.000000, 4.000000, 2.000000, 4.000000, 4.000000
76.000000, 0.000000, 4310.769043, 4347.692383, 4032.307617, 4057.435791, 4026.666504, 500.000000, 8140.000000, 8378.000000, 0.000000, 0.000000, 0.000000, 1.000000, 875.700012, 1557627427.882191, 4.000000, 4.000000, 2.000000, 4.000000, 4.000000
77.000000, 0.000000, 4305.641113, 4364.615234, 4030.769043, 4032.307617, 4013.845947, 500.000000, 8140.000000, 8379.000000, 0.000000, 0.000000, 0.000000, 1.000000, 883.700012, 1557627427.890191, 4.000000, 4.000000, 2.000000, 4.000000, 4.000000
78.000000, 0.000000, 4312.307617, 4368.717773, 4023.589600, 4040.512695, 3996.410156, 450.000000, 8147.000000, 8365.000000, 0.000000, 0.000000, 0.000000, 1.000000, 891.599976, 1557627427.898091, 4.000000, 4.000000, 2.000000, 4.000000, 4.000000
79.000000, 0.000000, 4324.102539, 4365.641113, 4034.358887, 4066.153809, 4015.384521, 16171.000000, 8144.000000, 8362.000000, 0.000000, 0.000000, 0.000000, 1.000000, 899.399963, 1557627427.905891, 4.000000, 4.000000, 2.000000, 4.000000, 4.000000
80.000000, 0.000000, 4321.025391, 4366.666504, 4036.923096, 4056.923096, 4027.179443, 450.000000, 8145.000000, 8375.000000, 0.000000, 0.000000, 0.000000, 1.000000, 907.099976, 1557627427.913591, 4.000000, 4.000000, 2.000000, 4.000000, 4.000000
81.000000, 0.000000, 4300.512695, 4362.051270, 4031.281982, 4043.076904, 4018.461426, 450.000000, 8148.000000, 8371.000000, 0.000000, 0.000000, 0.000000, 1.000000, 914.899963, 1557627427.921391, 4.000000, 4.000000, 2.000000, 4.000000, 4.000000
82.000000, 0.000000, 4307.179199, 4360.000000, 4029.743408, 4056.923096, 4017.435791, 450.000000, 8143.000000, 8371.000000, 0.000000, 0.000000, 0.000000, 1.000000, 922.799988, 1557627427.929291, 4.000000, 4.000000, 2.000000, 4.000000, 4.000000
83.000000, 0.000000, 4320.000000, 4365.641113, 4027.179443, 4049.230713, 4015.897217, 16171.000000, 8137.000000, 8369.000000, 0.000000, 0.000000, 0.000000, 1.000000, 930.700012, 1557627427.937191, 4.000000, 4.000000, 2.000000, 4.000000, 4.000000
84.000000, 0.000000, 4298.461426, 4370.769043, 4031.794678, 4024.615234, 4012.307617, 450.000000, 8139.000000, 8370.000000, 0.000000, 0.000000, 0.000000, 1.000000, 938.700012, 1557627427.945191, 4.000000, 4.000000, 2.000000, 4.000000, 4.000000
85.000000, 0.000000, 4286.666504, 4377.948730, 4034.871582, 4035.897217, 4018.974365, 450.000000, 8129.000000, 8373.000000, 0.000000, 0.000000, 0.000000, 1.000000, 946.700012, 1557627427.953191, 4.000000, 4.000000, 2.000000, 4.000000, 4.000000
86.000000, 0.000000, 4307.179199, 4377.948730, 4031.794678, 4052.307617, 4026.153809, 450.000000, 8132.000000, 8376.000000, 0.000000, 0.000000, 0.000000, 1.000000, 954.599976, 1557627427.961091, 4.000000, 4.000000, 2.000000, 4.000000, 4.000000
87.000000, 0.000000, 4317.436035, 4361.538574, 4038.461426, 4048.717773, 4029.230713, 16171.000000, 8137.000000, 8376.000000, 0.000000, 0.000000, 0.000000, 1.000000, 962.599976, 1557627427.969091, 4.000000, 4.000000, 2.000000, 4.000000, 4.000000
88.000000, 0.000000, 4305.127930, 4350.769043, 4042.051270, 4050.256348, 4031.794678, 450.000000, 8132.000000, 8372.000000, 0.000000, 0.000000, 0.000000, 1.000000, 970.399963, 1557627427.976891, 4.000000, 4.000000, 2.000000, 4.000000, 4.000000
89.000000, 0.000000, 4293.333008, 4364.102539, 4030.256348, 4050.256348, 4030.256348, 450.000000, 8132.000000, 8376.000000, 0.000000, 0.000000, 0.000000, 1.000000, 978.099976, 1557627427.984591, 4.000000, 4.000000, 2.000000, 4.000000, 4.000000
90.000000, 0.000000, 4298.461426, 4381.025391, 4028.717773, 4048.205078, 4035.897217, 450.000000, 8137.000000, 8385.000000, 0.000000, 0.000000, 0.000000, 1.000000, 985.899963, 1557627427.992391, 4.000000, 4.000000, 2.000000, 4.000000, 4.000000
91.000000, 0.000000, 4315.384277, 4372.820313, 4033.845947, 4052.307617, 4030.256348, 16171.000000, 8137.000000, 8378.000000, 0.000000, 0.000000, 0.000000, 1.000000, 993.799988, 1557627428.000291, 4.000000, 4.000000, 2.000000, 4.000000, 4.000000
92.000000, 0.000000, 4315.384277, 4357.948730, 4032.820313, 4049.743408, 4014.358887, 450.000000, 8136.000000, 8378.000000, 0.000000, 0.000000, 0.000000, 2.000000, 1.700012, 1557627428.008191, 4.000000, 4.000000, 2.000000, 4.000000, 4.000000
93.000000, 0.000000, 4297.948730, 4365.641113, 4036.410156, 4042.563965, 4026.666504, 450.000000, 8133.000000, 8393.000000, 0.000000, 0.000000, 0.000000, 2.000000, 9.700012, 1557627428.016191, 4.000000, 4.000000, 2.000000, 4.000000, 4.000000
94.000000, 0.000000, 4292.820313, 4364.615234, 4027.692139, 4035.897217, 4034.358887, 450.000000, 8142.000000, 8396.000000, 0.000000, 0.000000, 0.000000, 2.000000, 17.700012, 1557627428.024191, 4.000000, 4.000000, 2.000000, 4.000000, 4.000000
95.000000, 0.000000, 4297.948730, 4349.743652, 4010.769043, 4028.205078, 4014.871582, 16171.000000, 8142.000000, 8389.000000, 0.000000, 0.000000, 0.000000, 2.000000, 25.399963, 1557627428.031891, 4.000000, 4.000000, 2.000000, 4.000000, 4.000000
96.000000, 0.000000, 4286.153809, 4348.717773, 4020.000000, 4028.205078, 4015.384521, 450.000000, 8139.000000, 8396.000000, 0.000000, 0.000000, 0.000000, 2.000000, 33.200012, 1557627428.039691, 4.000000, 4.000000, 2.000000, 4.000000, 4.000000
97.000000, 0.000000, 4281.025391, 4356.922852, 4041.025635, 4036.923096, 4037.435791, 450.000000, 8143.000000, 8404.000000, 0.000000, 0.000000, 0.000000, 2.000000, 41.000000, 1557627428.047491, 4.000000, 4.000000, 2.000000, 4.000000, 4.000000
98.000000, 0.000000, 4307.179199, 4360.000000, 4044.615234, 4049.230713, 4044.615234, 450.000000, 8145.000000, 8403.000000, 0.000000, 0.000000, 0.000000, 2.000000, 48.700012, 1557627428.055191, 4.000000, 4.000000, 2.000000, 4.000000, 4.000000
99.000000, 0.000000, 4325.127930, 4358.461426, 4043.076904, 4062.051270, 4050.256348, 16171.000000, 8143.000000, 8402.000000, 0.000000, 0.000000, 0.000000, 2.000000, 56.599976, 1557627428.063091, 4.000000, 4.000000, 2.000000, 4.000000, 4.000000
100.000000, 0.000000, 4310.769043, 4360.512695, 4043.076904, 4058.974365, 4049.743408, 450.000000, 8148.000000, 8397.000000, 0.000000, 0.000000, 0.000000, 2.000000, 64.599976, 1557627428.071091, 4.000000, 4.000000, 2.000000, 4.000000, 4.000000
101.000000, 0.000000, 4296.922852, 4365.127930, 4036.410156, 4037.435791, 4028.717773, 450.000000, 8148.000000, 8401.000000, 0.000000, 0.000000, 0.000000, 2.000000, 72.500000, 1557627428.078991, 4.000000, 4.000000, 2.000000, 4.000000, 4.000000
102.000000, 0.000000, 4291.281738, 4356.410156, 4028.717773, 4030.256348, 4020.000000, 450.000000, 8144.000000, 8404.000000, 0.000000, 0.000000, 0.000000, 2.000000, 80.500000, 1557627428.086991, 4.000000, 4.000000, 2.000000, 4.000000, 4.000000
103.000000, 0.000000, 4285.641113, 4334.358887, 4015.384521, 4029.743408, 4007.179443, 16171.000000, 8136.000000, 8407.000000, 0.000000, 0.000000, 0.000000, 2.000000, 88.500000, 1557627428.094991, 4.000000, 4.000000, 2.000000, 4.000000, 4.000000
104.000000, 0.000000, 4284.615234, 4321.538574, 4003.076904, 4018.974365, 3982.563965, 450.000000, 8137.000000, 8398.000000, 0.000000, 0.000000, 0.000000, 2.000000, 96.200012, 1557627428.102691, 4.000000, 4.000000, 2.000000, 4.000000, 4.000000
105.000000, 0.000000, 4285.127930, 4318.974121, 4005.128174, 4027.692139, 3994.358887, 450.000000, 8137.000000, 8400.000000, 0.000000, 0.000000, 0.000000, 2.000000, 104.000000, 1557627428.110491, 4.000000, 4.000000, 2.000000, 4.000000, 4.000000
106.000000, 0.000000, 4284.102539, 4326.666504, 4014.871582, 4045.128174, 4024.102539, 450.000000, 8130.000000, 8412.000000, 0.000000, 0.000000, 0.000000, 2.000000, 111.799988, 1557627428.118291, 4.000000, 4.000000, 2.000000, 4.000000, 4.000000
107.000000, 0.000000, 4289.230469, 4342.563965, 4015.384521, 4033.333252, 4019.487061, 16171.000000, 8126.000000, 8412.000000, 0.000000, 0.000000, 0.000000, 2.000000, 119.700012, 1557627428.126191, 4.000000, 4.000000, 2.000000, 4.000000, 4.000000
108.000000, 0.000000, 4296.410156, 4340.512695, 4010.769043, 4027.179443, 4013.845947, 450.000000, 8127.000000, 8406.000000, 0.000000, 0.000000, 0.000000, 2.000000, 127.599976, 1557627428.134091, 4.000000, 4.000000, 2.000000, 4.000000, 4.000000
109.000000, 0.000000, 4300.000000, 4341.025391, 4018.974365, 4046.666504, 4032.307617, 450.000000, 8117.000000, 8410.000000, 0.000000, 0.000000, 0.000000, 2.000000, 135.599976, 1557627428.142091, 4.000000, 4.000000, 2.000000, 4.000000, 4.000000
110.000000, 0.000000, 4293.846191, 4356.922852, 4028.717773, 4045.640869, 4038.974365, 450.000000, 8122.000000, 8412.000000, 0.000000, 0.000000, 0.000000, 2.000000, 143.500000, 1557627428.149991, 4.000000, 4.000000, 2.000000, 4.000000, 4.000000
111.000000, 0.000000, 4292.307617, 4351.794922, 4019.487061, 4029.230713, 4025.128174, 16171.000000, 8127.000000, 8409.000000, 0.000000, 0.000000, 0.000000, 2.000000, 151.500000, 1557627428.157991, 4.000000, 4.000000, 2.000000, 4.000000, 4.000000
112.000000, 0.000000, 4304.102539, 4338.461426, 4002.051270, 4028.717773, 4006.666504, 450.000000, 8125.000000, 8415.000000, 0.000000, 0.000000, 0.000000, 2.000000, 159.299988, 1557627428.165791, 4.000000, 4.000000, 2.000000, 4.000000, 4.000000
113.000000, 0.000000, 4314.871582, 4353.846191, 4004.615234, 4036.923096, 4007.179443, 450.000000, 8129.000000, 8411.000000, 0.000000, 0.000000, 0.000000, 2.000000, 167.000000, 1557627428.173491, 4.000000, 4.000000, 2.000000, 4.000000, 4.000000
114.000000, 0.000000, 4312.307617, 4372.820313, 4028.205078, 4055.384521, 4029.743408, 450.000000, 8128.000000, 8399.000000, 0.000000, 0.000000, 0.000000, 2.000000, 174.799988, 1557627428.181291, 4.000000, 4.000000, 2.000000, 4.000000, 4.000000
115.000000, 0.000000, 4311.281738, 4369.743652, 4037.435791, 4062.563965, 4042.051270, 16171.000000, 8125.000000, 8401.000000, 0.000000, 0.000000, 0.000000, 2.000000, 182.599976, 1557627428.189091, 4.000000, 4.000000, 2.000000, 4.000000, 4.000000
116.000000, 0.000000, 4311.794922, 4364.615234, 4027.179443, 4046.153809, 4036.410156, 450.000000, 8120.000000, 8396.000000, 0.000000, 0.000000, 0.000000, 2.000000, 190.599976, 1557627428.197091, 4.000000, 4.000000, 2.000000, 4.000000, 4.000000
117.000000, 0.000000, 4310.256348, 4365.641113, 4016.923096, 4035.384521, 4024.615234, 450.000000, 8122.000000, 8384.000000, 0.000000, 0.000000, 0.000000, 2.000000, 198.599976, 1557627428.205091, 4.000000, 4.000000, 2.000000, 4.000000, 4.000000
118.000000, 0.000000, 4305.641113, 4369.230469, 4020.512695, 4036.410156, 4016.923096, 450.000000, 8127.000000, 8392.000000, 0.000000, 0.000000, 0.000000, 2.000000, 206.500000, 1557627428.212991, 4.000000, 4.000000, 2.000000, 4.000000, 4.000000
119.000000, 0.000000, 4298.974121, 4368.205078, 4034.358887, 4035.384521, 4021.538330, 16171.000000, 8126.000000, 8397.000000, 0.000000, 0.000000, 0.000000, 2.000000, 214.500000, 1557627428.220991, 4.000000, 4.000000, 2.000000, 4.000000, 4.000000
120.000000, 0.000000, 4297.436035, 4355.897461, 4033.333252, 4034.871582, 4026.666504, 450.000000, 8122.000000, 8395.000000, 0.000000, 0.000000, 0.000000, 2.000000, 222.299988, 1557627428.228791, 4.000000, 4.000000, 2.000000, 4.000000, 4.000000
121.000000, 0.000000, 4293.333008, 4353.846191, 4007.179443, 4035.384521, 4017.948730, 450.000000, 8129.000000, 8387.000000, 0.000000, 0.000000, 0.000000, 2.000000, 230.000000, 1557627428.236491, 4.000000, 4.000000, 2.000000, 4.000000, 4.000000
122.000000, 0.000000, 4283.589844, 4369.230469, 4003.076904, 4034.871582, 4012.820313, 450.000000, 8128.000000, 8385.000000, 0.000000, 0.000000, 0.000000, 2.000000, 237.799988, 1557627428.244291, 4.000000, 4.000000, 2.000000, 4.000000, 4.000000
123.000000, 0.000000, 4295.897461, 4385.641113, 4035.384521, 4044.102539, 4025.640869, 16171.000000, 8130.000000, 8396.000000, 0.000000, 0.000000, 0.000000, 2.000000, 245.799988, 1557627428.252291, 4.000000, 4.000000, 2.000000, 4.000000, 4.000000
124.000000, 0.000000, 4317.948730, 4383.076660, 4045.640869, 4052.820313, 4032.820313, 450.000000, 8120.000000, 8386.000000, 0.000000, 0.000000, 0.000000, 2.000000, 253.599976, 1557627428.260091, 4.000000, 4.000000, 2.000000, 4.000000, 4.000000
125.000000, 0.000000, 4302.563965, 4366.666504, 4038.461426, 4050.256348, 4030.256348, 450.000000, 8125.000000, 8382.000000, 0.000000, 0.000000, 0.000000, 2.000000, 261.599976, 1557627428.268091, 4.000000, 4.000000, 2.000000, 4.000000, 4.000000
126.000000, 0.000000, 4278.461426, 4360.512695, 4045.640869, 4037.948730, 4032.820313, 450.000000, 8121.000000, 8377.000000, 0.000000, 0.000000, 0.000000, 2.000000, 269.599976, 1557627428.276091, 4.000000, 4.000000, 2.000000, 4.000000, 4.000000
127.000000, 0.000000, 4279.487305, 4363.076660, 4043.589600, 4020.512695, 4031.281982, 16171.000000, 8121.000000, 8376.000000, 0.000000, 0.000000, 0.000000, 2.000000, 277.500000, 1557627428.283991, 4.000000, 4.000000, 2.000000, 4.000000, 4.000000
128.000000, 0.000000, 4285.127930, 4360.000000, 4024.615234, 4022.563965, 4020.512695, 500.000000, 8115.000000, 8371.000000, 0.000000, 0.000000, 0.000000, 2.000000, 285.500000, 1557627428.291991, 4.000000, 4.000000, 2.000000, 4.000000, 4.000000
0.000000, 0.000000, 4285.641113, 4361.025391, 4015.384521, 4033.333252, 4014.358887, 500.000000, 8118.000000, 8375.000000, 0.000000, 0.000000, 0.000000, 2.000000, 293.299988, 1557627428.299791, 4.000000, 4.000000, 2.000000, 4.000000, 4.000000
1.000000, 0.000000, 4281.025391, 4368.717773, 4019.487061, 4033.333252, 4014.871582, 500.000000, 8124.000000, 8365.000000, 0.000000, 0.000000, 0.000000, 2.000000, 301.000000, 1557627428.307491, 4.000000, 4.000000, 2.000000, 4.000000, 4.000000
2.000000, 0.000000, 4280.512695, 4370.256348, 4026.153809, 4037.435791, 4022.563965, 16182.000000, 8118.000000, 8362.000000, 0.000000, 0.000000, 0.000000, 2.000000, 308.799988, 1557627428.315291, 4.000000, 4.000000, 2.000000, 4.000000, 4.000000
3.000000, 0.000000, 4287.692383, 4367.692383, 4035.384521, 4048.205078, 4037.435791, 500.000000, 8115.000000, 8375.000000, 0.000000, 0.000000, 0.000000, 2.000000, 316.700012, 1557627428.323191, 4.000000, 4.000000, 2.000000, 4.000000, 4.000000
4.000000, 0.000000, 4288.205078, 4369.743652, 4028.205078, 4053.333252, 4032.820313, 16112.000000, 8114.000000, 8374.000000, 0.000000, 0.000000, 0.000000, 2.000000, 324.599976, 1557627428.331091, 4.000000, 4.000000, 2.000000, 4.000000, 4.000000
5.000000, 0.000000, 4282.563965, 4373.846191, 4024.615234, 4053.333252, 4021.025635, 500.000000, 8111.000000, 8366.000000, 0.000000, 0.000000, 0.000000, 2.000000, 332.599976, 1557627428.339091, 4.000000, 4.000000, 2.000000, 4.000000, 4.000000
6.000000, 0.000000, 4271.794922, 4369.743652, 4041.538330, 4048.717773, 4030.256348, 283.000000, 8103.000000, 8367.000000, 0.000000, 0.000000, 0.000000, 2.000000, 340.599976, 1557627428.347091, 4.000000, 4.000000, 2.000000, 4.000000, 4.000000
7.000000, 0.000000, 4260.512695, 4354.358887, 4045.640869, 4038.974365, 4029.743408, 500.000000, 8103.000000, 8373.000000, 0.000000, 0.000000, 0.000000, 2.000000, 348.499988, 1557627428.354991, 4.000000, 4.000000, 2.000000, 4.000000, 4.000000
8.000000, 0.000000, 4264.615234, 4356.922852, 4044.102539, 4050.769043, 4013.845947, 500.000000, 8089.000000, 8370.000000, 0.000000, 0.000000, 0.000000, 2.000000, 356.299988, 1557627428.362791, 4.000000, 4.000000, 2.000000, 4.000000, 4.000000
9.000000, 0.000000, 4277.436035, 4383.589844, 4050.769043, 4066.153809, 4014.358887, 294.000000, 8089.000000, 8361.000000, 0.000000, 0.000000, 0.000000, 2.000000, 364.099987, 1557627428.370591, 4.000000, 4.000000, 2.000000, 4.000000, 4.000000
10.000000, 0.000000, 4279.487305, 4389.230469, 4044.615234, 4037.948730, 4013.845947, 500.000000, 8080.000000, 8363.000000, 0.000000, 0.000000, 0.000000, 2.000000, 371.899988, 1557627428.378391, 4.000000, 4.000000, 2.000000, 4.000000, 4.000000
11.000000, 0.000000, 4282.051270, 4367.692383, 4031.794678, 4010.256348, 4004.102539, 16171.000000, 8080.000000, 8360.000000, 0.000000, 0.000000, 0.000000, 2.000000, 379.799988, 1557627428.386291, 4.000000, 4.000000, 2.000000, 4.000000, 4.000000
12.000000, 0.000000, 4301.025391, 4376.922852, 4049.230713, 4036.410156, 4023.589600, 500.000000, 8069.000000, 8359.000000, 0.000000, 0.000000, 0.000000, 2.000000, 387.799988, 1557627428.394291, 4.000000, 4.000000, 2.000000, 4.000000, 4.000000
13.000000, 0.000000, 4321.025391, 4405.127930, 4067.179443, 4066.153809, 4054.871582, 500.000000, 8073.000000, 8370.000000, 0.000000, 0.000000, 0.000000, 2.000000, 395.699989, 1557627428.402191, 4.000000, 4.000000, 2.000000, 4.000000, 4.000000
14.000000, 0.000000, 4327.179199, 4405.127930, 4048.717773, 4058.974365, 4050.769043, 450.000000, 8071.000000, 8381.000000, 0.000000, 0.000000, 0.000000, 2.000000, 403.599987, 1557627428.410091, 4.000000, 4.000000, 2.000000, 4.000000, 4.000000
15.000000, 0.000000, 4331.281738, 4395.897461, 4033.845947, 4060.000000, 4033.333252, 16171.000000, 8080.000000, 8384.000000, 0.000000, 0.000000, 0.000000, 2.000000, 411.599991, 1557627428.418091, 4.000000, 4.000000, 2.000000, 4.000000, 4.000000
16.000000, 0.000000, 4338.974121, 4404.102539, 4050.256348, 4080.000000, 4038.974365, 0.000000, 8079.000000, 8386.000000, 0.000000, 0.000000, 0.000000, 2.000000, 419.499985, 1557627428.425991, 4.000000, 4.000000, 2.000000, 4.000000, 4.000000
17.000000, 0.000000, 4334.871582, 4404.615234, 4062.051270, 4084.102539, 4055.897217, 0.000000, 8086.000000, 8400.000000, 0.000000, 0.000000, 0.000000, 2.000000, 427.299988, 1557627428.433791, 4.000000, 4.000000, 2.000000, 4.000000, 4.000000
18.000000, 0.000000, 4327.692383, 4402.051270, 4063.589600, 4086.666504, 4060.000000, 0.000000, 8086.000000, 8395.000000, 0.000000, 0.000000, 0.000000, 2.000000, 434.999985, 1557627428.441491, 4.000000, 4.000000, 2.000000, 4.000000, 4.000000
19.000000, 0.000000, 4334.358887, 4410.769043, 4069.743408, 4092.820313, 4057.948730, 0.000000, 8089.000000, 8402.000000, 0.000000, 0.000000, 0.000000, 2.000000, 442.799988, 1557627428.449291, 4.000000, 4.000000, 2.000000, 4.000000, 4.000000
20.000000, 0.000000, 4333.333008, 4410.769043, 4069.743408, 4084.615234, 4063.589600, 0.000000, 8086.000000, 8420.000000, 0.000000, 0.000000, 0.000000, 2.000000, 450.699989, 1557627428.457191, 4.000000, 4.000000, 2.000000, 4.000000, 4.000000
21.000000, 0.000000, 4329.743652, 4414.358887, 4072.307617, 4088.717773, 4081.025635, 0.000000, 8091.000000, 8422.000000, 0.000000, 0.000000, 0.000000, 2.000000, 458.599991, 1557627428.465091, 4.000000, 4.000000, 2.000000, 4.000000, 4.000000
22.000000, 0.000000, 4346.153809, 4436.410156, 4076.410156, 4106.666504, 4086.153809, 0.000000, 8091.000000, 8418.000000, 0.000000, 0.000000, 0.000000, 2.000000, 466.599991, 1557627428.473091, 4.000000, 4.000000, 2.000000, 4.000000, 4.000000
23.000000, 0.000000, 4361.025391, 4448.205078, 4074.358887, 4102.051270, 4082.563965, 0.000000, 8090.000000, 8419.000000, 0.000000, 0.000000, 0.000000, 2.000000, 474.599991, 1557627428.481091, 4.000000, 4.000000, 2.000000, 4.000000, 4.000000
24.000000, 0.000000, 4366.666504, 4440.000000, 4081.538330, 4094.871582, 4090.256348, 0.000000, 8094.000000, 8420.000000, 0.000000, 0.000000, 0.000000, 2.000000, 482.499985, 1557627428.488991, 4.000000, 4.000000, 2.000000, 4.000000, 4.000000
25.000000, 0.000000, 4373.333008, 4436.410156, 4089.743408, 4104.615234, 4095.897217, 0.000000, 8098.000000, 8416.000000, 0.000000, 0.000000, 0.000000, 2.000000, 490.299988, 1557627428.496791, 4.000000, 4.000000, 2.000000, 4.000000, 4.000000
26.000000, 0.000000, 4377.948730, 4453.333008, 4089.743408, 4118.974121, 4091.281982, 0.000000, 8091.000000, 8422.000000, 0.000000, 0.000000, 0.000000, 2.000000, 498.099991, 1557627428.504591, 4.000000, 4.000000, 2.000000, 4.000000, 4.000000
27.000000, 0.000000, 4381.025391, 4461.538574, 4097.436035, 4124.102539, 4097.948730, 0.000000, 8090.000000, 8419.000000, 0.000000, 0.000000, 0.000000, 2.000000, 505.799988, 1557627428.512291, 4.000000, 4.000000, 2.000000, 4.000000, 4.000000
28.000000, 0.000000, 4374.358887, 4445.127930, 4108.717773, 4115.384277, 4109.743652, 0.000000, 8095.000000, 8413.000000, 0.000000, 0.000000, 0.000000, 2.000000, 513.699982, 1557627428.520191, 4.000000, 4.000000, 2.000000, 4.000000, 4.000000
29.000000, 0.000000, 4361.538574, 4442.051270, 4099.487305, 4098.974121, 4103.076660, 0.000000, 8093.000000, 8420.000000, 0.000000, 0.000000, 0.000000, 2.000000, 521.699982, 1557627428.528191, 4.000000, 4.000000, 2.000000, 4.000000, 4.000000
30.000000, 0.000000, 4360.512695, 4458.461426, 4087.179443, 4093.845947, 4086.666504, 0.000000, 8088.000000, 8432.000000, 0.000000, 0.000000, 0.000000, 2.000000, 529.599991, 1557627428.536091, 4.000000, 4.000000, 2.000000, 4.000000, 4.000000
31.000000, 0.000000, 4355.384277, 4444.102539, 4088.717773, 4097.948730, 4085.128174, 0.000000, 8085.000000, 8433.000000, 0.000000, 0.000000, 0.000000, 2.000000, 537.599991, 1557627428.544091, 4.000000, 4.000000, 2.000000, 4.000000, 4.000000
32.000000, 0.000000, 4337.948730, 4421.025391, 4083.589600, 4090.256348, 4079.487061, 0.000000, 8091.000000, 8433.000000, 0.000000, 0.000000, 0.000000, 2.000000, 545.599991, 1557627428.552091, 4.000000, 4.000000, 2.000000, 4.000000, 4.000000
33.000000, 0.000000, 4340.512695, 4433.333008, 4073.333252, 4082.051270, 4056.410156, 0.000000, 8086.000000, 8440.000000, 0.000000, 0.000000, 0.000000, 2.000000, 553.499985, 1557627428.559991, 4.000000, 4.000000, 2.000000, 4.000000, 4.000000
34.000000, 0.000000, 4356.922852, 4438.461426, 4070.256348, 4086.153809, 4051.794678, 0.000000, 8086.000000, 8445.000000, 0.000000, 0.000000, 0.000000, 2.000000, 561.299988, 1557627428.567791, 4.000000, 4.000000, 2.000000, 4.000000, 4.000000
35.000000, 0.000000, 4352.820313, 4419.487305, 4070.769043, 4095.384521, 4075.897217, 0.000000, 8090.000000, 8436.000000, 0.000000, 0.000000, 0.000000, 2.000000, 569.099991, 1557627428.575591, 4.000000, 4.000000, 2.000000, 4.000000, 4.000000
36.000000, 0.000000, 4342.051270, 4412.820313, 4068.205078, 4104.102539, 4080.000000, 0.000000, 8079.000000, 8433.000000, 0.000000, 0.000000, 0.000000, 2.000000, 576.799988, 1557627428.583291, 4.000000, 4.000000, 2.000000, 4.000000, 4.000000
37.000000, 0.000000, 4340.512695, 4415.897461, 4067.179443, 4095.897217, 4064.102539, 0.000000, 8085.000000, 8439.000000, 0.000000, 0.000000, 0.000000, 2.000000, 584.699982, 1557627428.591191, 4.000000, 4.000000, 2.000000, 4.000000, 4.000000
38.000000, 0.000000, 4334.358887, 4411.794922, 4066.153809, 4073.333252, 4056.410156, 0.000000, 8081.000000, 8436.000000, 0.000000, 0.000000, 0.000000, 2.000000, 592.699982, 1557627428.599191, 4.000000, 4.000000, 2.000000, 4.000000, 4.000000
39.000000, 0.000000, 4331.281738, 4410.769043, 4062.563965, 4066.666504, 4056.410156, 0.000000, 8083.000000, 8432.000000, 0.000000, 0.000000, 0.000000, 2.000000, 600.599991, 1557627428.607091, 4.000000, 4.000000, 2.000000, 4.000000, 4.000000
40.000000, 0.000000, 4328.205078, 4416.922852, 4061.025635, 4078.974365, 4064.102539, 0.000000, 8080.000000, 8424.000000, 0.000000, 0.000000, 0.000000, 2.000000, 608.599976, 1557627428.615091, 4.000000, 4.000000, 2.000000, 4.000000, 4.000000
41.000000, 0.000000, 4316.922852, 4408.205078, 4060.512695, 4076.923096, 4063.076904, 0.000000, 8086.000000, 8417.000000, 0.000000, 0.000000, 0.000000, 2.000000, 616.599976, 1557627428.623091, 4.000000, 4.000000, 2.000000, 4.000000, 4.000000
42.000000, 0.000000, 4320.000000, 4397.948730, 4072.820313, 4070.769043, 4060.000000, 0.000000, 8095.000000, 8407.000000, 0.000000, 0.000000, 0.000000, 2.000000, 624.299988, 1557627428.630791, 4.000000, 4.000000, 2.000000, 4.000000, 4.000000
43.000000, 0.000000, 4344.102539, 4408.205078, 4092.820313, 4091.794678, 4072.307617, 0.000000, 8096.000000, 8411.000000, 0.000000, 0.000000, 0.000000, 2.000000, 632.099976, 1557627428.638591, 4.000000, 4.000000, 2.000000, 4.000000, 4.000000
44.000000, 0.000000, 4355.897461, 4418.974121, 4083.589600, 4103.076660, 4069.230713, 0.000000, 8105.000000, 8406.000000, 0.000000, 0.000000, 0.000000, 2.000000, 639.899994, 1557627428.646391, 4.000000, 4.000000, 2.000000, 4.000000, 4.000000
45.000000, 0.000000, 4341.025391, 4417.435547, 4062.563965, 4079.487061, 4044.102539, 0.000000, 8110.000000, 8396.000000, 0.000000, 0.000000, 0.000000, 2.000000, 647.699982, 1557627428.654191, 4.000000, 4.000000, 2.000000, 4.000000, 4.000000
46.000000, 0.000000, 4325.127930, 4409.743652, 4062.563965, 4059.487061, 4037.435791, 0.000000, 8110.000000, 8390.000000, 0.000000, 0.000000, 0.000000, 2.000000, 655.699982, 1557627428.662191, 4.000000, 4.000000, 2.000000, 4.000000, 4.000000
47.000000, 0.000000, 4322.051270, 4395.384277, 4060.000000, 4061.538330, 4040.000000, 0.000000, 8113.000000, 8406.000000, 0.000000, 0.000000, 0.000000, 2.000000, 663.699982, 1557627428.670191, 4.000000, 4.000000, 2.000000, 4.000000, 4.000000
48.000000, 0.000000, 4321.025391, 4386.666504, 4047.692139, 4062.563965, 4030.256348, 0.000000, 8119.000000, 8389.000000, 0.000000, 0.000000, 0.000000, 2.000000, 671.399994, 1557627428.677891, 4.000000, 4.000000, 2.000000, 4.000000, 4.000000
49.000000, 0.000000, 4307.692383, 4391.281738, 4045.128174, 4051.794678, 4030.256348, 0.000000, 8121.000000, 8382.000000, 0.000000, 0.000000, 0.000000, 2.000000, 679.199982, 1557627428.685691, 4.000000, 4.000000, 2.000000, 4.000000, 4.000000
50.000000, 0.000000, 4301.025391, 4389.743652, 4044.102539, 4049.743408, 4024.615234, 0.000000, 8124.000000, 8389.000000, 0.000000, 0.000000, 0.000000, 2.000000, 687.000000, 1557627428.693491, 4.000000, 4.000000, 2.000000, 4.000000, 4.000000
51.000000, 0.000000, 4303.076660, 4376.922852, 4041.025635, 4051.794678, 4017.435791, 0.000000, 8128.000000, 8384.000000, 0.000000, 0.000000, 0.000000, 2.000000, 694.699982, 1557627428.701191, 4.000000, 4.000000, 2.000000, 4.000000, 4.000000
52.000000, 0.000000, 4293.846191, 4376.410156, 4036.410156, 4047.179443, 4025.640869, 0.000000, 8127.000000, 8375.000000, 0.000000, 0.000000, 0.000000, 2.000000, 702.699982, 1557627428.709191, 4.000000, 4.000000, 2.000000, 4.000000, 4.000000
53.000000, 0.000000, 4295.897461, 4388.205078, 4032.820313, 4045.640869, 4032.820313, 0.000000, 8128.000000, 8380.000000, 0.000000, 0.000000, 0.000000, 2.000000, 710.599976, 1557627428.717091, 4.000000, 4.000000, 2.000000, 4.000000, 4.000000
54.000000, 0.000000, 4302.051270, 4382.563965, 4035.384521, 4043.589600, 4021.538330, 0.000000, 8133.000000, 8378.000000, 0.000000, 0.000000, 0.000000, 2.000000, 718.599976, 1557627428.725091, 4.000000, 4.000000, 2.000000, 4.000000, 4.000000
55.000000, 0.000000, 4300.000000, 4365.641113, 4025.640869, 4033.333252, 4006.666504, 0.000000, 8134.000000, 8371.000000, 0.000000, 0.000000, 0.000000, 2.000000, 726.599976, 1557627428.733091, 4.000000, 4.000000, 2.000000, 4.000000, 4.000000
56.000000, 0.000000, 4304.615234, 4369.230469, 4006.666504, 4034.871582, 4004.615234, 0.000000, 8131.000000, 8384.000000, 0.000000, 0.000000, 0.000000, 2.000000, 734.500000, 1557627428.740991, 4.000000, 4.000000, 2.000000, 4.000000, 4.000000
57.000000, 0.000000, 4298.974121, 4384.102539, 4008.717773, 4039.487061, 4004.615234, 0.000000, 8130.000000, 8383.000000, 0.000000, 0.000000, 0.000000, 2.000000, 742.500000, 1557627428.748991, 4.000000, 4.000000, 2.000000, 4.000000, 4.000000
58.000000, 0.000000, 4277.948730, 4373.846191, 4020.512695, 4024.102539, 4004.102539, 0.000000, 8139.000000, 8376.000000, 0.000000, 0.000000, 0.000000, 2.000000, 750.500000, 1557627428.756991, 4.000000, 4.000000, 2.000000, 4.000000, 4.000000
59.000000, 0.000000, 4271.794922, 4356.922852, 4022.051270, 4022.563965, 4009.743408, 0.000000, 8138.000000, 8383.000000, 0.000000, 0.000000, 0.000000, 2.000000, 758.199982, 1557627428.764691, 4.000000, 4.000000, 2.000000, 4.000000, 4.000000
60.000000, 0.000000, 4274.871582, 4358.974121, 4021.538330, 4042.563965, 4010.256348, 0.000000, 8134.000000, 8392.000000, 0.000000, 0.000000, 0.000000, 2.000000, 766.000000, 1557627428.772491, 4.000000, 4.000000, 2.000000, 4.000000, 4.000000
61.000000, 0.000000, 4268.717773, 4366.666504, 4030.256348, 4043.589600, 4002.051270, 0.000000, 8132.000000, 8393.000000, 0.000000, 0.000000, 0.000000, 2.000000, 773.799988, 1557627428.780291, 4.000000, 4.000000, 2.000000, 4.000000, 4.000000
62.000000, 0.000000, 4277.948730, 4369.743652, 4033.333252, 4033.333252, 4001.538330, 0.000000, 8139.000000, 8383.000000, 0.000000, 0.000000, 0.000000, 2.000000, 781.699982, 1557627428.788191, 4.000000, 4.000000, 2.000000, 4.000000, 4.000000
63.000000, 0.000000, 4290.769043, 4363.589844, 4026.153809, 4035.384521, 4010.256348, 0.000000, 8141.000000, 8389.000000, 0.000000, 0.000000, 0.000000, 2.000000, 789.599976, 1557627428.796091, 4.000000, 4.000000, 2.000000, 4.000000, 4.000000
64.000000, 0.000000, 4288.717773, 4356.922852, 4025.640869, 4034.358887, 4003.589600, 500.000000, 8140.000000, 8389.000000, 0.000000, 0.000000, 0.000000, 2.000000, 797.599976, 1557627428.804091, 4.000000, 4.000000, 2.000000, 4.000000, 4.000000
65.000000, 0.000000, 4290.256348, 4354.871582, 4025.128174, 4027.179443, 3992.307617, 500.000000, 8142.000000, 8386.000000, 0.000000, 0.000000, 0.000000, 2.000000, 805.500000, 1557627428.811991, 4.000000, 4.000000, 2.000000, 4.000000, 4.000000
66.000000, 0.000000, 4295.897461, 4363.589844, 4031.281982, 4031.281982, 4011.281982, 16177.000000, 8138.000000, 8389.000000, 0.000000, 0.000000, 0.000000, 2.000000, 813.500000, 1557627428.819991, 4.000000, 4.000000, 2.000000, 4.000000, 4.000000
67.000000, 0.000000, 4297.436035, 4372.820313, 4046.153809, 4042.051270, 4040.000000, 500.000000, 8142.000000, 8389.000000, 0.000000, 0.000000, 0.000000, 2.000000, 821.299988, 1557627428.827791, 4.000000, 4.000000, 2.000000, 4.000000, 4.000000
68.000000, 0.000000, 4293.846191, 4365.127930, 4047.179443, 4045.128174, 4033.845947, 16104.000000, 8146.000000, 8391.000000, 0.000000, 0.000000, 0.000000, 2.000000, 829.000000, 1557627428.835491, 4.000000, 4.000000, 2.000000, 4.000000, 4.000000
69.000000, 0.000000, 4285.641113, 4349.743652, 4030.256348, 4035.384521, 4012.820313, 500.000000, 8138.000000, 8391.000000, 0.000000, 0.000000, 0.000000, 2.000000, 836.799988, 1557627428.843291, 4.000000, 4.000000, 2.000000, 4.000000, 4.000000
70.000000, 0.000000, 4273.333008, 4341.538574, 4022.051270, 4028.205078, 4013.333252, 283.000000, 8147.000000, 8391.000000, 0.000000, 0.000000, 0.000000, 2.000000, 844.699982, 1557627428.851191, 4.000000, 4.000000, 2.000000, 4.000000, 4.000000
71.000000, 0.000000, 4272.307617, 4347.179199, 4029.230713, 4033.845947, 4015.384521, 500.000000, 8154.000000, 8386.000000, 0.000000, 0.000000, 0.000000, 2.000000, 852.599976, 1557627428.859091, 4.000000, 4.000000, 2.000000, 4.000000, 4.000000
72.000000, 0.000000, 4280.000000, 4351.794922, 4030.769043, 4037.948730, 4005.128174, 500.000000, 8153.000000, 8383.000000, 0.000000, 0.000000, 0.000000, 2.000000, 860.599976, 1557627428.867091, 4.000000, 4.000000, 2.000000, 4.000000, 4.000000
73.000000, 0.000000, 4281.538574, 4350.256348, 4022.563965, 4037.435791, 4004.102539, 288.000000, 8148.000000, 8387.000000, 0.000000, 0.000000, 0.000000, 2.000000, 868.599976, 1557627428.875091, 4.000000, 4.000000, 2.000000, 4.000000, 4.000000
74.000000, 0.000000, 4278.974121, 4351.281738, 4021.538330, 4031.794678, 4007.179443, 500.000000, 8156.000000, 8387.000000, 0.000000, 0.000000, 0.000000, 2.000000, 876.500000, 1557627428.882991, 4.000000, 4.000000, 2.000000, 4.000000, 4.000000
75.000000, 0.000000, 4272.820313, 4348.205078, 4032.820313, 4018.461426, 4002.051270, 16177.000000, 8161.000000, 8372.000000, 0.000000, 0.000000, 0.000000, 2.000000, 884.299988, 1557627428.890791, 4.000000, 4.000000, 2.000000, 4.000000, 4.000000
76.000000, 0.000000, 4261.538574, 4330.769043, 4041.025635, 4019.487061, 4006.153809, 500.000000, 8157.000000, 8379.000000, 0.000000, 0.000000, 0.000000, 2.000000, 892.099976, 1557627428.898591, 4.000000, 4.000000, 2.000000, 4.000000, 4.000000
77.000000, 0.000000, 4262.051270, 4325.127930, 4038.974365, 4030.769043, 4016.410156, 500.000000, 8162.000000, 8390.000000, 0.000000, 0.000000, 0.000000, 2.000000, 899.799988, 1557627428.906291, 4.000000, 4.000000, 2.000000, 4.000000, 4.000000
78.000000, 0.000000, 4277.948730, 4347.692383, 4028.717773, 4028.205078, 4004.615234, 450.000000, 8161.000000, 8382.000000, 0.000000, 0.000000, 0.000000, 2.000000, 907.599976, 1557627428.914091, 4.000000, 4.000000, 2.000000, 4.000000, 4.000000
79.000000, 0.000000, 4274.358887, 4359.487305, 4026.153809, 4016.410156, 3993.845947, 16177.000000, 8168.000000, 8382.000000, 0.000000, 0.000000, 0.000000, 2.000000, 915.599976, 1557627428.922091, 4.000000, 4.000000, 2.000000, 4.000000, 4.000000
80.000000, 0.000000, 4257.948730, 4352.307617, 4039.487061, 4013.333252, 4010.769043, 450.000000, 8175.000000, 8386.000000, 0.000000, 0.000000, 0.000000, 2.000000, 923.500000, 1557627428.929991, 4.000000, 4.000000, 2.000000, 4.000000, 4.000000
81.000000, 0.000000, 4266.666504, 4350.769043, 4046.153809, 4032.307617, 4018.461426, 450.000000, 8167.000000, 8385.000000, 0.000000, 0.000000, 0.000000, 2.000000, 931.500000, 1557627428.937991, 4.000000, 4.000000, 2.000000, 4.000000, 4.000000
82.000000, 0.000000, 4283.589844, 4345.127930, 4037.435791, 4046.153809, 4010.256348, 450.000000, 8164.000000, 8382.000000, 0.000000, 0.000000, 0.000000, 2.000000, 939.500000, 1557627428.945991, 4.000000, 4.000000, 2.000000, 4.000000, 4.000000
83.000000, 0.000000, 4283.589844, 4336.922852, 4036.923096, 4033.845947, 4017.948730, 16177.000000, 8161.000000, 8383.000000, 0.000000, 0.000000, 0.000000, 2.000000, 947.200012, 1557627428.953691, 4.000000, 4.000000, 2.000000, 4.000000, 4.000000
84.000000, 0.000000, 4277.436035, 4342.051270, 4041.025635, 4023.076904, 4020.512695, 450.000000, 8163.000000, 8379.000000, 0.000000, 0.000000, 0.000000, 2.000000, 955.000000, 1557627428.961491, 4.000000, 4.000000, 2.000000, 4.000000, 4.000000
85.000000, 0.000000, 4274.358887, 4350.769043, 4033.333252, 4027.179443, 4004.615234, 450.000000, 8153.000000, 8377.000000, 0.000000, 0.000000, 0.000000, 2.000000, 962.799988, 1557627428.969291, 4.000000, 4.000000, 2.000000, 4.000000, 4.000000
86.000000, 0.000000, 4276.922852, 4353.333008, 4033.333252, 4028.205078, 4006.153809, 450.000000, 8150.000000, 8378.000000, 0.000000, 0.000000, 0.000000, 2.000000, 970.700012, 1557627428.977191, 4.000000, 4.000000, 2.000000, 4.000000, 4.000000
87.000000, 0.000000, 4276.922852, 4352.820313, 4046.153809, 4026.666504, 4024.615234, 16177.000000, 8142.000000, 8382.000000, 0.000000, 0.000000, 0.000000, 2.000000, 978.599976, 1557627428.985091, 4.000000, 4.000000, 2.000000, 4.000000, 4.000000
88.000000, 0.000000, 4264.615234, 4342.051270, 4048.717773, 4027.179443, 4016.923096, 450.000000, 8147.000000, 8368.000000, 0.000000, 0.000000, 0.000000, 2.000000, 986.500000, 1557627428.992991, 4.000000, 4.000000, 2.000000, 4.000000, 4.000000
89.000000, 0.000000, 4261.538574, 4338.461426, 4037.435791, 4017.435791, 3998.461426, 450.000000, 8144.000000, 8374.000000, 0.000000, 0.000000, 0.000000, 2.000000, 994.500000, 1557627429.000991, 4.000000, 4.000000, 2.000000, 4.000000, 4.000000
90.000000, 0.000000, 4284.615234, 4354.358887, 4032.307617, 4013.333252, 4002.563965, 450.000000, 8142.000000, 8379.000000, 0.000000, 0.000000, 0.000000, 3.000000, 2.500000, 1557627429.008991, 4.000000, 4.000000, 2.000000, 4.000000, 4.000000
91.000000, 0.000000, 4289.230469, 4356.410156, 4044.615234, 4026.666504, 4014.871582, 16177.000000, 8147.000000, 8381.000000, 0.000000, 0.000000, 0.000000, 3.000000, 10.399963, 1557627429.016891, 4.000000, 4.000000, 2.000000, 4.000000, 4.000000
92.000000, 0.000000, 4260.000000, 4339.487305, 4052.820313, 4037.435791, 4014.358887, 450.000000, 8151.000000, 8371.000000, 0.000000, 0.000000, 0.000000, 3.000000, 18.200012, 1557627429.024691, 4.000000, 4.000000, 2.000000, 4.000000, 4.000000
93.000000, 0.000000, 4252.307617, 4341.538574, 4043.076904, 4032.820313, 4011.281982, 450.000000, 8154.000000, 8376.000000, 0.000000, 0.000000, 0.000000, 3.000000, 26.000000, 1557627429.032491, 4.000000, 4.000000, 2.000000, 4.000000, 4.000000
94.000000, 0.000000, 4282.051270, 4354.871582, 4030.769043, 4021.538330, 4015.897217, 450.000000, 8161.000000, 8375.000000, 0.000000, 0.000000, 0.000000, 3.000000, 33.700012, 1557627429.040191, 4.000000, 4.000000, 2.000000, 4.000000, 4.000000
95.000000, 0.000000, 4306.666504, 4350.769043, 4026.153809, 4019.487061, 4023.076904, 16177.000000, 8162.000000, 8375.000000, 0.000000, 0.000000, 0.000000, 3.000000, 41.599976, 1557627429.048091, 4.000000, 4.000000, 2.000000, 4.000000, 4.000000
96.000000, 0.000000, 4304.615234, 4339.487305, 4015.897217, 4015.897217, 4025.128174, 450.000000, 8164.000000, 8381.000000, 0.000000, 0.000000, 0.000000, 3.000000, 49.599976, 1557627429.056091, 4.000000, 4.000000, 2.000000, 4.000000, 4.000000
97.000000, 0.000000, 4293.333008, 4337.948730, 4011.281982, 3997.948730, 4008.717773, 450.000000, 8167.000000, 8370.000000, 0.000000, 0.000000, 0.000000, 3.000000, 57.500000, 1557627429.063991, 4.000000, 4.000000, 2.000000, 4.000000, 4.000000
98.000000, 0.000000, 4294.871582, 4342.563965, 4029.743408, 3992.307617, 3996.923096, 450.000000, 8163.000000, 8370.000000, 0.000000, 0.000000, 0.000000, 3.000000, 65.500000, 1557627429.071991, 4.000000, 4.000000, 2.000000, 4.000000, 4.000000
99.000000, 0.000000, 4300.000000, 4346.666504, 4044.102539, 4010.256348, 4016.410156, 16177.000000, 8162.000000, 8375.000000, 0.000000, 0.000000, 0.000000, 3.000000, 73.500000, 1557627429.079991, 4.000000, 4.000000, 2.000000, 4.000000, 4.000000
100.000000, 0.000000, 4291.281738, 4348.717773, 4032.820313, 4014.358887, 4023.589600, 450.000000, 8156.000000, 8376.000000, 0.000000, 0.000000, 0.000000, 3.000000, 81.200012, 1557627429.087691, 4.000000, 4.000000, 2.000000, 4.000000, 4.000000
101.000000, 0.000000, 4278.974121, 4352.820313, 4029.743408, 4001.025635, 4007.692139, 450.000000, 8164.000000, 8367.000000, 0.000000, 0.000000, 0.000000, 3.000000, 89.000000, 1557627429.095491, 4.000000, 4.000000, 2.000000, 4.000000, 4.000000
102.000000, 0.000000, 4281.025391, 4360.000000, 4046.153809, 4008.205078, 4008.205078, 450.000000, 8165.000000, 8371.000000, 0.000000, 0.000000, 0.000000, 3.000000, 96.799988, 1557627429.103291, 4.000000, 4.000000, 2.000000, 4.000000, 4.000000
103.000000, 0.000000, 4280.000000, 4358.461426, 4049.743408, 4030.256348, 4022.051270, 16177.000000, 8167.000000, 8377.000000, 0.000000, 0.000000, 0.000000, 3.000000, 104.700012, 1557627429.111191, 4.000000, 4.000000, 2.000000, 4.000000, 4.000000
104.000000, 0.000000, 4281.025391, 4353.333008, 4042.563965, 4026.153809, 4018.974365, 450.000000, 8160.000000, 8376.000000, 0.000000, 0.000000, 0.000000, 3.000000, 112.700012, 1557627429.119191, 4.000000, 4.000000, 2.000000, 4.000000, 4.000000
105.000000, 0.000000, 4298.974121, 4352.820313, 4032.820313, 4004.102539, 4009.743408, 450.000000, 8163.000000, 8367.000000, 0.000000, 0.000000, 0.000000, 3.000000, 120.700012, 1557627429.127191, 4.000000, 4.000000, 2.000000, 4.000000, 4.000000
106.000000, 0.000000, 4296.922852, 4354.358887, 4031.281982, 4000.512695, 4014.358887, 450.000000, 8162.000000, 8364.000000, 0.000000, 0.000000, 0.000000, 3.000000, 128.599976, 1557627429.135091, 4.000000, 4.000000, 2.000000, 4.000000, 4.000000
107.000000, 0.000000, 4274.358887, 4357.948730, 4044.615234, 4010.769043, 4026.666504, 16177.000000, 8157.000000, 8364.000000, 0.000000, 0.000000, 0.000000, 3.000000, 136.599976, 1557627429.143091, 4.000000, 4.000000, 2.000000, 4.000000, 4.000000
108.000000, 0.000000, 4278.461426, 4363.589844, 4042.563965, 4015.384521, 4031.794678, 450.000000, 8150.000000, 8365.000000, 0.000000, 0.000000, 0.000000, 3.000000, 144.599976, 1557627429.151091, 4.000000, 4.000000, 2.000000, 4.000000, 4.000000
109.000000, 0.000000, 4297.436035, 4362.051270, 4028.717773, 4012.307617, 4023.076904, 450.000000, 8147.000000, 8364.000000, 0.000000, 0.000000, 0.000000, 3.000000, 152.299988, 1557627429.158791, 4.000000, 4.000000, 2.000000, 4.000000, 4.000000
110.000000, 0.000000, 4296.410156, 4356.922852, 4031.794678, 4011.794678, 4015.897217, 450.000000, 8146.000000, 8359.000000, 0.000000, 0.000000, 0.000000, 3.000000, 160.099976, 1557627429.166591, 4.000000, 4.000000, 2.000000, 4.000000, 4.000000
111.000000, 0.000000, 4288.205078, 4353.333008, 4035.384521, 4020.000000, 4020.000000, 16177.000000, 8136.000000, 8356.000000, 0.000000, 0.000000, 0.000000, 3.000000, 167.899963, 1557627429.174391, 4.000000, 4.000000, 2.000000, 4.000000, 4.000000
112.000000, 0.000000, 4283.076660, 4348.205078, 4024.615234, 4030.769043, 4021.538330, 450.000000, 8121.000000, 8364.000000, 0.000000, 0.000000, 0.000000, 3.000000, 175.700012, 1557627429.182191, 4.000000, 4.000000, 2.000000, 4.000000, 4.000000
113.000000, 0.000000, 4283.076660, 4343.076660, 4018.461426, 4027.692139, 4020.512695, 450.000000, 8120.000000, 8368.000000, 0.000000, 0.000000, 0.000000, 3.000000, 183.700012, 1557627429.190191, 4.000000, 4.000000, 2.000000, 4.000000, 4.000000
114.000000, 0.000000, 4287.179199, 4352.820313, 4031.794678, 4011.281982, 4035.897217, 450.000000, 8117.000000, 8356.000000, 0.000000, 0.000000, 0.000000, 3.000000, 191.700012, 1557627429.198191, 4.000000, 4.000000, 2.000000, 4.000000, 4.000000
115.000000, 0.000000, 4292.307617, 4366.153809, 4046.666504, 4012.820313, 4046.153809, 16177.000000, 8108.000000, 8362.000000, 0.000000, 0.000000, 0.000000, 3.000000, 199.599976, 1557627429.206091, 4.000000, 4.000000, 2.000000, 4.000000, 4.000000
116.000000, 0.000000, 4296.922852, 4357.435547, 4032.307617, 4019.487061, 4024.615234, 450.000000, 8105.000000, 8374.000000, 0.000000, 0.000000, 0.000000, 3.000000, 207.599976, 1557627429.214091, 4.000000, 4.000000, 2.000000, 4.000000, 4.000000
117.000000, 0.000000, 4292.820313, 4334.871582, 4003.076904, 4015.384521, 4001.025635, 450.000000, 8088.000000, 8381.000000, 0.000000, 0.000000, 0.000000, 3.000000, 215.399963, 1557627429.221891, 4.000000, 4.000000, 2.000000, 4.000000, 4.000000
118.000000, 0.000000, 4278.974121, 4334.358887, 4001.025635, 4014.358887, 3997.948730, 450.000000, 8090.000000, 8367.000000, 0.000000, 0.000000, 0.000000, 3.000000, 223.099976, 1557627429.229591, 4.000000, 4.000000, 2.000000, 4.000000, 4.000000
119.000000, 0.000000, 4277.436035, 4359.487305, 4017.948730, 4011.794678, 4008.205078, 16177.000000, 8082.000000, 8363.000000, 0.000000, 0.000000, 0.000000, 3.000000, 230.899963, 1557627429.237391, 4.000000, 4.000000, 2.000000, 4.000000, 4.000000
120.000000, 0.000000, 4288.717773, 4370.256348, 4020.512695, 4010.769043, 4018.461426, 450.000000, 8077.000000, 8369.000000, 0.000000, 0.000000, 0.000000, 3.000000, 238.700012, 1557627429.245191, 4.000000, 4.000000, 2.000000, 4.000000, 4.000000
121.000000, 0.000000, 4294.358887, 4364.615234, 4014.358887, 4023.589600, 4023.076904, 450.000000, 8077.000000, 8365.000000, 0.000000, 0.000000, 0.000000, 3.000000, 246.599976, 1557627429.253091, 4.000000, 4.000000, 2.000000, 4.000000, 4.000000
122.000000, 0.000000, 4294.358887, 4354.358887, 4016.923096, 4030.769043, 4019.487061, 450.000000, 8071.000000, 8373.000000, 0.000000, 0.000000, 0.000000, 3.000000, 254.599976, 1557627429.261091, 4.000000, 4.000000, 2.000000, 4.000000, 4.000000
123.000000, 0.000000, 4285.127930, 4350.256348, 4025.640869, 4025.640869, 4016.410156, 16177.000000, 8069.000000, 8375.000000, 0.000000, 0.000000, 0.000000, 3.000000, 262.599976, 1557627429.269091, 4.000000, 4.000000, 2.000000, 4.000000, 4.000000
124.000000, 0.000000, 4277.948730, 4352.820313, 4025.640869, 4028.717773, 4022.051270, 450.000000, 8066.000000, 8365.000000, 0.000000, 0.000000, 0.000000, 3.000000, 270.500000, 1557627429.276991, 4.000000, 4.000000, 2.000000, 4.000000, 4.000000
125.000000, 0.000000, 4284.102539, 4347.179199, 4012.307617, 4022.051270, 4017.435791, 450.000000, 8061.000000, 8374.000000, 0.000000, 0.000000, 0.000000, 3.000000, 278.500000, 1557627429.284991, 4.000000, 4.000000, 2.000000, 4.000000, 4.000000
126.000000, 0.000000, 4276.922852, 4336.922852, 4007.179443, 4012.307617, 4008.717773, 450.000000, 8062.000000, 8372.000000, 0.000000, 0.000000, 0.000000, 3.000000, 286.200012, 1557627429.292691, 4.000000, 4.000000, 2.000000, 4.000000, 4.000000
127.000000, 0.000000, 4260.000000, 4337.436035, 4020.000000, 4022.563965, 4018.461426, 16177.000000, 8061.000000, 8360.000000, 0.000000, 0.000000, 0.000000, 3.000000, 294.000000, 1557627429.300491, 4.000000, 4.000000, 2.000000, 4.000000, 4.000000
128.000000, 0.000000, 4266.153809, 4344.102539, 4026.666504, 4026.666504, 4028.717773, 500.000000, 8069.000000, 8355.000000, 0.000000, 0.000000, 0.000000, 3.000000, 301.799988, 1557627429.308291, 4.000000, 4.000000, 2.000000, 4.000000, 4.000000
0.000000, 0.000000, 4281.538574, 4342.051270, 4019.487061, 4030.256348, 4021.538330, 500.000000, 8067.000000, 8371.000000, 0.000000, 0.000000, 0.000000, 3.000000, 309.599976, 1557627429.316091, 4.000000, 4.000000, 2.000000, 4.000000, 4.000000
1.000000, 0.000000, 4283.076660, 4340.000000, 4015.384521, 4039.487061, 4015.897217, 500.000000, 8072.000000, 8372.000000, 0.000000, 0.000000, 0.000000, 3.000000, 317.599976, 1557627429.324091, 4.000000, 4.000000, 2.000000, 4.000000, 4.000000
2.000000, 0.000000, 4287.692383, 4345.127930, 4016.410156, 4036.923096, 4022.563965, 16184.000000, 8078.000000, 8367.000000, 0.000000, 0.000000, 0.000000, 3.000000, 325.599976, 1557627429.332091, 4.000000, 4.000000, 2.000000, 4.000000, 4.000000
3.000000, 0.000000, 4299.487305, 4345.641113, 4016.410156, 4037.948730, 4019.487061, 500.000000, 8088.000000, 8371.000000, 0.000000, 0.000000, 0.000000, 3.000000, 333.500000, 1557627429.339991, 4.000000, 4.000000, 2.000000, 4.000000, 4.000000
4.000000, 0.000000, 4289.743652, 4341.538574, 4019.487061, 4036.923096, 4008.205078, 16109.000000, 8089.000000, 8377.000000, 0.000000, 0.000000, 0.000000, 3.000000, 341.500000, 1557627429.347991, 4.000000, 4.000000, 2.000000, 4.000000, 4.000000
5.000000, 0.000000, 4271.281738, 4338.974121, 4023.589600, 4025.640869, 4000.000000, 500.000000, 8103.000000, 8382.000000, 0.000000, 0.000000, 0.000000, 3.000000, 349.299988, 1557627429.355791, 4.000000, 4.000000, 2.000000, 4.000000, 4.000000
6.000000, 0.000000, 4265.127930, 4335.384277, 4021.025635, 4023.076904, 3995.384521, 283.000000, 8108.000000, 8379.000000, 0.000000, 0.000000, 0.000000, 3.000000, 356.999988, 1557627429.363491, 4.000000, 4.000000, 2.000000, 4.000000, 4.000000
7.000000, 0.000000, 4268.205078, 4329.743652, 4020.000000, 4023.589600, 3998.461426, 500.000000, 8112.000000, 8388.000000, 0.000000, 0.000000, 0.000000, 3.000000, 364.799988, 1557627429.371291, 4.000000, 4.000000, 2.000000, 4.000000, 4.000000
8.000000, 0.000000, 4276.922852, 4338.461426, 4032.820313, 4021.538330, 4000.000000, 500.000000, 8115.000000, 8388.000000, 0.000000, 0.000000, 0.000000, 3.000000, 372.699987, 1557627429.379191, 4.000000, 4.000000, 2.000000, 4.000000, 4.000000
9.000000, 0.000000, 4278.461426, 4353.846191, 4042.051270, 4038.974365, 4014.871582, 289.000000, 8118.000000, 8397.000000, 0.000000, 0.000000, 0.000000, 3.000000, 380.599987, 1557627429.387091, 4.000000, 4.000000, 2.000000, 4.000000, 4.000000
10.000000, 0.000000, 4280.512695, 4348.717773, 4025.128174, 4045.640869, 4024.102539, 500.000000, 8134.000000, 8400.000000, 0.000000, 0.000000, 0.000000, 3.000000, 388.599987, 1557627429.395091, 4.000000, 4.000000, 2.000000, 4.000000, 4.000000
11.000000, 0.000000, 4287.179199, 4329.230469, 4009.743408, 4025.128174, 4007.692139, 16169.000000, 8142.000000, 8393.000000, 0.000000, 0.000000, 0.000000, 3.000000, 396.599987, 1557627429.403091, 4.000000, 4.000000, 2.000000, 4.000000, 4.000000
12.000000, 0.000000, 4286.153809, 4335.384277, 4020.512695, 4020.000000, 4000.512695, 500.000000, 8156.000000, 8397.000000, 0.000000, 0.000000, 0.000000, 3.000000, 404.499989, 1557627429.410991, 4.000000, 4.000000, 2.000000, 4.000000, 4.000000
13.000000, 0.000000, 4291.794922, 4360.000000, 4031.794678, 4034.871582, 4013.845947, 500.000000, 8156.000000, 8408.000000, 0.000000, 0.000000, 0.000000, 3.000000, 412.299988, 1557627429.418791, 4.000000, 4.000000, 2.000000, 4.000000, 4.000000
14.000000, 0.000000, 4296.922852, 4355.384277, 4030.256348, 4038.461426, 4023.589600, 450.000000, 8171.000000, 8417.000000, 0.000000, 0.000000, 0.000000, 3.000000, 420.099991, 1557627429.426591, 4.000000, 4.000000, 2.000000, 4.000000, 4.000000
15.000000, 0.000000, 4286.153809, 4336.410156, 4031.794678, 4030.256348, 4021.025635, 16169.000000, 8175.000000, 8412.000000, 0.000000, 0.000000, 0.000000, 3.000000, 427.799988, 1557627429.434291, 4.000000, 4.000000, 2.000000, 4.000000, 4.000000
16.000000, 0.000000, 4283.589844, 4347.179199, 4034.358887, 4026.666504, 4018.461426, 0.000000, 8182.000000, 8421.000000, 0.000000, 0.000000, 0.000000, 3.000000, 435.799988, 1557627429.442291, 4.000000, 4.000000, 2.000000, 4.000000, 4.000000
17.000000, 0.000000, 4295.384277, 4367.692383, 4029.230713, 4028.205078, 4017.435791, 0.000000, 8183.000000, 8435.000000, 0.000000, 0.000000, 0.000000, 3.000000, 443.799988, 1557627429.450291, 4.000000, 4.000000, 2.000000, 4.000000, 4.000000
18.000000, 0.000000, 4297.436035, 4366.153809, 4023.076904, 4022.051270, 4011.281982, 0.000000, 8191.000000, 8436.000000, 0.000000, 0.000000, 0.000000, 3.000000, 451.699989, 1557627429.458191, 4.000000, 4.000000, 2.000000, 4.000000, 4.000000
19.000000, 0.000000, 4301.538574, 4361.025391, 4020.512695, 4011.281982, 4004.102539, 0.000000, 8192.000000, 8428.000000, 0.000000, 0.000000, 0.000000, 3.000000, 459.699989, 1557627429.466191, 4.000000, 4.000000, 2.000000, 4.000000, 4.000000
20.000000, 0.000000, 4311.281738, 4370.256348, 4014.358887, 4013.845947, 4004.102539, 0.000000, 8189.000000, 8426.000000, 0.000000, 0.000000, 0.000000, 3.000000, 467.699989, 1557627429.474191, 4.000000, 4.000000, 2.000000, 4.000000, 4.000000
21.000000, 0.000000, 4297.948730, 4369.743652, 4009.743408, 4020.512695, 4012.307617, 0.000000, 8187.000000, 8425.000000, 0.000000, 0.000000, 0.000000, 3.000000, 475.399994, 1557627429.481891, 4.000000, 4.000000, 2.000000, 4.000000, 4.000000
22.000000, 0.000000, 4273.846191, 4358.461426, 4014.871582, 4020.512695, 4024.102539, 0.000000, 8182.000000, 8420.000000, 0.000000, 0.000000, 0.000000, 3.000000, 483.199982, 1557627429.489691, 4.000000, 4.000000, 2.000000, 4.000000, 4.000000
23.000000, 0.000000, 4272.307617, 4359.487305, 4026.666504, 4025.128174, 4032.307617, 0.000000, 8179.000000, 8421.000000, 0.000000, 0.000000, 0.000000, 3.000000, 490.999985, 1557627429.497491, 4.000000, 4.000000, 2.000000, 4.000000, 4.000000
24.000000, 0.000000, 4290.256348, 4367.692383, 4031.794678, 4032.307617, 4026.666504, 0.000000, 8180.000000, 8417.000000, 0.000000, 0.000000, 0.000000, 3.000000, 498.699982, 1557627429.505191, 4.000000, 4.000000, 2.000000, 4.000000, 4.000000
25.000000, 0.000000, 4285.127930, 4362.051270, 4025.128174, 4028.205078, 4017.948730, 0.000000, 8175.000000, 8419.000000, 0.000000, 0.000000, 0.000000, 3.000000, 506.699982, 1557627429.513191, 4.000000, 4.000000, 2.000000, 4.000000, 4.000000
26.000000, 0.000000, 4259.487305, 4349.230469, 4021.025635, 4017.435791, 4019.487061, 0.000000, 8170.000000, 8431.000000, 0.000000, 0.000000, 0.000000, 3.000000, 514.699982, 1557627429.521191, 4.000000, 4.000000, 2.000000, 4.000000, 4.000000
27.000000, 0.000000, 4267.179199, 4353.333008, 4025.128174, 4015.897217, 4011.794678, 0.000000, 8163.000000, 8434.000000, 0.000000, 0.000000, 0.000000, 3.000000, 522.599991, 1557627429.529091, 4.000000, 4.000000, 2.000000, 4.000000, 4.000000
28.000000, 0.000000, 4295.384277, 4352.820313, 4025.640869, 4017.435791, 3995.384521, 0.000000, 8161.000000, 8423.000000, 0.000000, 0.000000, 0.000000, 3.000000, 530.599991, 1557627429.537091, 4.000000, 4.000000, 2.000000, 4.000000, 4.000000
29.000000, 0.000000, 4293.846191, 4340.512695, 4016.410156, 4024.102539, 3992.820313, 0.000000, 8166.000000, 8442.000000, 0.000000, 0.000000, 0.000000, 3.000000, 538.399994, 1557627429.544891, 4.000000, 4.000000, 2.000000, 4.000000, 4.000000
30.000000, 0.000000, 4296.410156, 4345.641113, 4018.974365, 4041.025635, 4010.769043, 0.000000, 8157.000000, 8457.000000, 0.000000, 0.000000, 0.000000, 3.000000, 546.099991, 1557627429.552591, 4.000000, 4.000000, 2.000000, 4.000000, 4.000000
31.000000, 0.000000, 4307.179199, 4358.974121, 4034.358887, 4049.230713, 4028.717773, 0.000000, 8157.000000, 8461.000000, 0.000000, 0.000000, 0.000000, 3.000000, 553.899994, 1557627429.560391, 4.000000, 4.000000, 2.000000, 4.000000, 4.000000
32.000000, 0.000000, 4293.846191, 4360.512695, 4033.845947, 4037.435791, 4025.640869, 0.000000, 8158.000000, 8458.000000, 0.000000, 0.000000, 0.000000, 3.000000, 561.599991, 1557627429.568091, 4.000000, 4.000000, 2.000000, 4.000000, 4.000000
33.000000, 0.000000, 4296.410156, 4363.589844, 4025.640869, 4020.512695, 4012.307617, 0.000000, 8153.000000, 8456.000000, 0.000000, 0.000000, 0.000000, 3.000000, 569.599991, 1557627429.576091, 4.000000, 4.000000, 2.000000, 4.000000, 4.000000
34.000000, 0.000000, 4320.000000, 4366.153809, 4025.128174, 4017.435791, 4015.384521, 0.000000, 8154.000000, 8460.000000, 0.000000, 0.000000, 0.000000, 3.000000, 577.599991, 1557627429.584091, 4.000000, 4.000000, 2.000000, 4.000000, 4.000000
35.000000, 0.000000, 4306.153809, 4349.743652, 4016.923096, 4025.128174, 4024.615234, 0.000000, 8150.000000, 8451.000000, 0.000000, 0.000000, 0.000000, 3.000000, 585.499985, 1557627429.591991, 4.000000, 4.000000, 2.000000, 4.000000, 4.000000
36.000000, 0.000000, 4277.436035, 4338.974121, 4009.230713, 4029.743408, 4018.461426, 0.000000, 8150.000000, 8451.000000, 0.000000, 0.000000, 0.000000, 3.000000, 593.499985, 1557627429.599991, 4.000000, 4.000000, 2.000000, 4.000000, 4.000000
37.000000, 0.000000, 4293.333008, 4350.769043, 4024.615234, 4027.179443, 4018.974365, 0.000000, 8155.000000, 8442.000000, 0.000000, 0.000000, 0.000000, 3.000000, 601.500000, 1557627429.607991, 4.000000, 4.000000, 2.000000, 4.000000, 4.000000
38.000000, 0.000000, 4308.205078, 4361.538574, 4050.256348, 4035.897217, 4031.281982, 0.000000, 8156.000000, 8426.000000, 0.000000, 0.000000, 0.000000, 3.000000, 609.199982, 1557627429.615691, 4.000000, 4.000000, 2.000000, 4.000000, 4.000000
39.000000, 0.000000, 4294.358887, 4360.512695, 4051.281982, 4044.102539, 4029.230713, 0.000000, 8154.000000, 8435.000000, 0.000000, 0.000000, 0.000000, 3.000000, 617.000000, 1557627429.623491, 4.000000, 4.000000, 2.000000, 4.000000, 4.000000
40.000000, 0.000000, 4295.897461, 4357.435547, 4033.845947, 4029.743408, 4019.487061, 0.000000, 8151.000000, 8430.000000, 0.000000, 0.000000, 0.000000, 3.000000, 624.799988, 1557627429.631291, 4.000000, 4.000000, 2.000000, 4.000000, 4.000000
41.000000, 0.000000, 4293.846191, 4355.897461, 4034.871582, 4014.871582, 4026.666504, 0.000000, 8156.000000, 8422.000000, 0.000000, 0.000000, 0.000000, 3.000000, 632.699982, 1557627429.639191, 4.000000, 4.000000, 2.000000, 4.000000, 4.000000
42.000000, 0.000000, 4285.127930, 4358.461426, 4047.179443, 4021.538330, 4038.974365, 0.000000, 8160.000000, 8416.000000, 0.000000, 0.000000, 0.000000, 3.000000, 640.699982, 1557627429.647191, 4.000000, 4.000000, 2.000000, 4.000000, 4.000000
43.000000, 0.000000, 4297.436035, 4356.410156, 4039.487061, 4035.897217, 4032.307617, 0.000000, 8156.000000, 8430.000000, 0.000000, 0.000000, 0.000000, 3.000000, 648.699982, 1557627429.655191, 4.000000, 4.000000, 2.000000, 4.000000, 4.000000
44.000000, 0.000000, 4302.563965, 4338.461426, 4022.563965, 4038.974365, 4021.538330, 0.000000, 8160.000000, 8419.000000, 0.000000, 0.000000, 0.000000, 3.000000, 656.599976, 1557627429.663091, 4.000000, 4.000000, 2.000000, 4.000000, 4.000000
45.000000, 0.000000, 4288.205078, 4336.410156, 4021.538330, 4028.205078, 4017.435791, 0.000000, 8156.000000, 8405.000000, 0.000000, 0.000000, 0.000000, 3.000000, 664.599976, 1557627429.671091, 4.000000, 4.000000, 2.000000, 4.000000, 4.000000
46.000000, 0.000000, 4284.615234, 4356.410156, 4036.410156, 4021.538330, 4014.358887, 0.000000, 8155.000000, 8405.000000, 0.000000, 0.000000, 0.000000, 3.000000, 672.599976, 1557627429.679091, 4.000000, 4.000000, 2.000000, 4.000000, 4.000000
47.000000, 0.000000, 4289.230469, 4361.025391, 4045.128174, 4031.794678, 4017.948730, 0.000000, 8151.000000, 8404.000000, 0.000000, 0.000000, 0.000000, 3.000000, 680.299988, 1557627429.686791, 4.000000, 4.000000, 2.000000, 4.000000, 4.000000
48.000000, 0.000000, 4288.717773, 4351.794922, 4036.410156, 4044.615234, 4026.666504, 0.000000, 8146.000000, 8387.000000, 0.000000, 0.000000, 0.000000, 3.000000, 688.299988, 1557627429.694791, 4.000000, 4.000000, 2.000000, 4.000000, 4.000000
49.000000, 0.000000, 4298.461426, 4354.871582, 4030.256348, 4047.179443, 4027.692139, 0.000000, 8144.000000, 8381.000000, 0.000000, 0.000000, 0.000000, 3.000000, 696.099976, 1557627429.702591, 4.000000, 4.000000, 2.000000, 4.000000, 4.000000
50.000000, 0.000000, 4297.948730, 4358.974121, 4041.025635, 4042.051270, 4022.051270, 0.000000, 8139.000000, 8382.000000, 0.000000, 0.000000, 0.000000, 3.000000, 703.899994, 1557627429.710391, 4.000000, 4.000000, 2.000000, 4.000000, 4.000000
51.000000, 0.000000, 4281.025391, 4354.358887, 4046.153809, 4029.743408, 4017.948730, 0.000000, 8145.000000, 8378.000000, 0.000000, 0.000000, 0.000000, 3.000000, 711.699982, 1557627429.718191, 4.000000, 4.000000, 2.000000, 4.000000, 4.000000
52.000000, 0.000000, 4281.025391, 4356.922852, 4045.128174, 4027.692139, 4017.435791, 0.000000, 8136.000000, 8374.000000, 0.000000, 0.000000, 0.000000, 3.000000, 719.699982, 1557627429.726191, 4.000000, 4.000000, 2.000000, 4.000000, 4.000000
53.000000, 0.000000, 4291.281738, 4357.948730, 4061.025635, 4048.717773, 4026.153809, 0.000000, 8137.000000, 8384.000000, 0.000000, 0.000000, 0.000000, 3.000000, 727.599976, 1557627429.734091, 4.000000, 4.000000, 2.000000, 4.000000, 4.000000
54.000000, 0.000000, 4295.384277, 4347.692383, 4067.692139, 4055.384521, 4037.435791, 0.000000, 8137.000000, 8366.000000, 0.000000, 0.000000, 0.000000, 3.000000, 735.599976, 1557627429.742091, 4.000000, 4.000000, 2.000000, 4.000000, 4.000000
55.000000, 0.000000, 4293.846191, 4340.000000, 4045.128174, 4036.923096, 4031.794678, 0.000000, 8127.000000, 8375.000000, 0.000000, 0.000000, 0.000000, 3.000000, 743.399994, 1557627429.749891, 4.000000, 4.000000, 2.000000, 4.000000, 4.000000
56.000000, 0.000000, 4285.127930, 4335.384277, 4032.820313, 4026.153809, 4017.435791, 0.000000, 8118.000000, 8386.000000, 0.000000, 0.000000, 0.000000, 3.000000, 751.299988, 1557627429.757791, 4.000000, 4.000000, 2.000000, 4.000000, 4.000000
57.000000, 0.000000, 4282.051270, 4334.358887, 4039.487061, 4037.948730, 4017.948730, 0.000000, 8112.000000, 8392.000000, 0.000000, 0.000000, 0.000000, 3.000000, 759.099976, 1557627429.765591, 4.000000, 4.000000, 2.000000, 4.000000, 4.000000
58.000000, 0.000000, 4289.230469, 4336.410156, 4037.948730, 4046.666504, 4026.666504, 0.000000, 8109.000000, 8380.000000, 0.000000, 0.000000, 0.000000, 3.000000, 766.899994, 1557627429.773391, 4.000000, 4.000000, 2.000000, 4.000000, 4.000000
59.000000, 0.000000, 4290.256348, 4336.410156, 4031.794678, 4030.769043, 4023.076904, 0.000000, 8101.000000, 8385.000000, 0.000000, 0.000000, 0.000000, 3.000000, 774.699982, 1557627429.781191, 4.000000, 4.000000, 2.000000, 4.000000, 4.000000
60.000000, 0.000000, 4290.256348, 4346.153809, 4039.487061, 4023.076904, 4020.000000, 0.000000, 8100.000000, 8396.000000, 0.000000, 0.000000, 0.000000, 3.000000, 782.699982, 1557627429.789191, 4.000000, 4.000000, 2.000000, 4.000000, 4.000000
61.000000, 0.000000, 4295.897461, 4358.974121, 4046.666504, 4036.923096, 4027.692139, 0.000000, 8103.000000, 8390.000000, 0.000000, 0.000000, 0.000000, 3.000000, 790.699982, 1557627429.797191, 4.000000, 4.000000, 2.000000, 4.000000, 4.000000
62.000000, 0.000000, 4290.769043, 4349.743652, 4051.281982, 4042.051270, 4031.281982, 0.000000, 8102.000000, 8388.000000, 0.000000, 0.000000, 0.000000, 3.000000, 798.599976, 1557627429.805091, 4.000000, 4.000000, 2.000000, 4.000000, 4.000000
63.000000, 0.000000, 4283.076660, 4339.487305, 4063.589600, 4037.948730, 4035.384521, 0.000000, 8098.000000, 8386.000000, 0.000000, 0.000000, 0.000000, 3.000000, 806.399994, 1557627429.812891, 4.000000, 4.000000, 2.000000, 4.000000, 4.000000
64.000000, 0.000000, 4294.871582, 4354.358887, 4067.692139, 4040.000000, 4048.717773, 500.000000, 8103.000000, 8375.000000, 0.000000, 0.000000, 0.000000, 3.000000, 814.199982, 1557627429.820691, 4.000000, 4.000000, 2.000000, 4.000000, 4.000000
65.000000, 0.000000, 4305.641113, 4356.410156, 4055.384521, 4033.845947, 4052.307617, 500.000000, 8108.000000, 8377.000000, 0.000000, 0.000000, 0.000000, 3.000000, 822.099976, 1557627429.828591, 4.000000, 4.000000, 2.000000, 4.000000, 4.000000
66.000000, 0.000000, 4294.358887, 4341.538574, 4044.615234, 4024.102539, 4041.538330, 16187.000000, 8109.000000, 8384.000000, 0.000000, 0.000000, 0.000000, 3.000000, 829.899994, 1557627429.836391, 4.000000, 4.000000, 2.000000, 4.000000, 4.000000
67.000000, 0.000000, 4284.615234, 4338.974121, 4046.153809, 4031.281982, 4038.974365, 500.000000, 8107.000000, 8382.000000, 0.000000, 0.000000, 0.000000, 3.000000, 837.799988, 1557627429.844291, 4.000000, 4.000000, 2.000000, 4.000000, 4.000000
68.000000, 0.000000, 4286.666504, 4340.512695, 4044.102539, 4026.666504, 4033.845947, 16104.000000, 8114.000000, 8371.000000, 0.000000, 0.000000, 0.000000, 3.000000, 845.699982, 1557627429.852191, 4.000000, 4.000000, 2.000000, 4.000000, 4.000000
69.000000, 0.000000, 4289.230469, 4337.948730, 4037.435791, 4006.153809, 4016.923096, 500.000000, 8117.000000, 8379.000000, 0.000000, 0.000000, 0.000000, 3.000000, 853.699982, 1557627429.860191, 4.000000, 4.000000, 2.000000, 4.000000, 4.000000
70.000000, 0.000000, 4288.717773, 4332.307617, 4040.000000, 4012.307617, 4020.000000, 283.000000, 8120.000000, 8380.000000, 0.000000, 0.000000, 0.000000, 3.000000, 861.599976, 1557627429.868091, 4.000000, 4.000000, 2.000000, 4.000000, 4.000000
