title:bhavan sad2, recorded:12.05.19 12.47.40, timestamp started:2019-05-12T12:47:40.722074+05:30, sampling:128, subject:, labels:COUNTER INTERPOLATED AF3 T7 Pz T8 AF4 RAW_CQ GYROX GYROY MARKER MARKER_HARDWARE SYNC TIME_STAMP_s TIME_STAMP_ms TimeStamp CQ_AF3 CQ_T7 CQ_Pz CQ_T8 CQ_AF4, chan:20, samples:3924, units:emotiv
75.000000, 0.000000, 4002.051270, 4445.127930, 4363.076660, 3966.153809, 4038.461426, 16159.000000, 8143.000000, 8343.000000, 1.000000, 2.000000, 0.000000, 0.000000, 0.000000, 1557645460.722074, 4.000000, 4.000000, 4.000000, 4.000000, 4.000000
76.000000, 0.000000, 3984.615234, 4426.153809, 4342.051270, 4000.512695, 4044.102539, 500.000000, 8145.000000, 8350.000000, 0.000000, 0.000000, 0.000000, 0.000000, 8.000000, 1557645460.730074, 4.000000, 4.000000, 4.000000, 4.000000, 4.000000
77.000000, 0.000000, 3982.563965, 4423.076660, 4326.666504, 3992.820313, 4036.923096, 500.000000, 8146.000000, 8350.000000, 0.000000, 0.000000, 0.000000, 0.000000, 16.000000, 1557645460.738074, 4.000000, 4.000000, 4.000000, 4.000000, 4.000000
78.000000, 0.000000, 3989.743408, 4438.974121, 4317.948730, 3941.538330, 4028.717773, 450.000000, 8143.000000, 8337.000000, 0.000000, 0.000000, 0.000000, 0.000000, 24.000000, 1557645460.746074, 4.000000, 4.000000, 4.000000, 4.000000, 4.000000
79.000000, 0.000000, 4004.615234, 4462.563965, 4321.538574, 3976.923096, 4049.743408, 16159.000000, 8147.000000, 8342.000000, 0.000000, 0.000000, 0.000000, 0.000000, 31.899994, 1557645460.753974, 4.000000, 4.000000, 4.000000, 4.000000, 4.000000
80.000000, 0.000000, 4004.615234, 4457.435547, 4307.692383, 4025.640869, 4052.820313, 450.000000, 8145.000000, 8350.000000, 0.000000, 0.000000, 0.000000, 0.000000, 39.699982, 1557645460.761774, 4.000000, 4.000000, 4.000000, 4.000000, 4.000000
81.000000, 0.000000, 3986.666504, 4410.769043, 4283.076660, 3985.640869, 4031.281982, 450.000000, 8150.000000, 8351.000000, 0.000000, 0.000000, 0.000000, 0.000000, 47.500000, 1557645460.769574, 4.000000, 4.000000, 4.000000, 4.000000, 4.000000
82.000000, 0.000000, 3978.461426, 4406.153809, 4276.922852, 3956.923096, 4026.666504, 450.000000, 8148.000000, 8345.000000, 0.000000, 0.000000, 0.000000, 0.000000, 55.299988, 1557645460.777374, 4.000000, 4.000000, 4.000000, 4.000000, 4.000000
83.000000, 0.000000, 3978.974365, 4438.461426, 4270.769043, 3960.000000, 4017.948730, 16159.000000, 8144.000000, 8344.000000, 0.000000, 0.000000, 0.000000, 0.000000, 63.000000, 1557645460.785074, 4.000000, 4.000000, 4.000000, 4.000000, 4.000000
84.000000, 0.000000, 3961.538330, 4405.641113, 4256.922852, 3940.000000, 3990.769043, 450.000000, 8141.000000, 8351.000000, 0.000000, 0.000000, 0.000000, 0.000000, 71.000000, 1557645460.793074, 4.000000, 4.000000, 4.000000, 4.000000, 4.000000
85.000000, 0.000000, 3963.076904, 4391.281738, 4268.205078, 3954.358887, 4000.512695, 450.000000, 8139.000000, 8353.000000, 0.000000, 0.000000, 0.000000, 0.000000, 79.000000, 1557645460.801074, 4.000000, 4.000000, 4.000000, 4.000000, 4.000000
86.000000, 0.000000, 3996.410156, 4453.333008, 4287.179199, 4000.000000, 4032.307617, 450.000000, 8136.000000, 8360.000000, 0.000000, 0.000000, 0.000000, 0.000000, 87.000000, 1557645460.809074, 4.000000, 4.000000, 4.000000, 4.000000, 4.000000
87.000000, 0.000000, 3972.820313, 4433.846191, 4258.461426, 3976.410156, 4004.102539, 16159.000000, 8139.000000, 8358.000000, 0.000000, 0.000000, 0.000000, 0.000000, 94.899994, 1557645460.816974, 4.000000, 4.000000, 4.000000, 4.000000, 4.000000
88.000000, 0.000000, 3913.845947, 4360.512695, 4218.461426, 3939.487061, 3962.051270, 450.000000, 8136.000000, 8353.000000, 0.000000, 0.000000, 0.000000, 0.000000, 102.699982, 1557645460.824774, 4.000000, 4.000000, 4.000000, 4.000000, 4.000000
89.000000, 0.000000, 3933.333252, 4378.974121, 4218.974121, 3951.794678, 3985.128174, 450.000000, 8142.000000, 8362.000000, 0.000000, 0.000000, 0.000000, 0.000000, 110.500000, 1557645460.832574, 4.000000, 4.000000, 4.000000, 4.000000, 4.000000
90.000000, 0.000000, 3991.794678, 4408.717773, 4227.692383, 3960.000000, 4024.615234, 450.000000, 8140.000000, 8361.000000, 0.000000, 0.000000, 0.000000, 0.000000, 118.299988, 1557645460.840374, 4.000000, 4.000000, 4.000000, 4.000000, 4.000000
91.000000, 0.000000, 3992.307617, 4391.794922, 4222.051270, 3965.128174, 4030.256348, 16159.000000, 8139.000000, 8354.000000, 0.000000, 0.000000, 0.000000, 0.000000, 126.000000, 1557645460.848074, 4.000000, 4.000000, 4.000000, 4.000000, 4.000000
92.000000, 0.000000, 3984.102539, 4398.974121, 4227.179199, 3975.897217, 4045.640869, 450.000000, 8149.000000, 8348.000000, 0.000000, 0.000000, 0.000000, 0.000000, 134.000000, 1557645460.856074, 4.000000, 4.000000, 4.000000, 4.000000, 4.000000
93.000000, 0.000000, 3993.845947, 4378.461426, 4235.897461, 3972.820313, 4061.538330, 450.000000, 8150.000000, 8360.000000, 0.000000, 0.000000, 0.000000, 0.000000, 142.000000, 1557645460.864074, 4.000000, 4.000000, 4.000000, 4.000000, 4.000000
94.000000, 0.000000, 3976.410156, 4326.666504, 4221.025391, 3984.102539, 4043.076904, 450.000000, 8141.000000, 8370.000000, 0.000000, 0.000000, 0.000000, 0.000000, 150.000000, 1557645460.872074, 4.000000, 4.000000, 4.000000, 4.000000, 4.000000
95.000000, 0.000000, 3980.512695, 4364.615234, 4216.922852, 4009.230713, 4042.563965, 16159.000000, 8148.000000, 8359.000000, 0.000000, 0.000000, 0.000000, 0.000000, 158.000000, 1557645460.880074, 4.000000, 4.000000, 4.000000, 4.000000, 4.000000
96.000000, 0.000000, 4000.512695, 4414.358887, 4216.922852, 3990.256348, 4055.897217, 450.000000, 8150.000000, 8361.000000, 0.000000, 0.000000, 0.000000, 0.000000, 165.899994, 1557645460.887974, 4.000000, 4.000000, 4.000000, 4.000000, 4.000000
97.000000, 0.000000, 3971.281982, 4352.307617, 4183.589844, 3965.640869, 4020.000000, 450.000000, 8154.000000, 8365.000000, 0.000000, 0.000000, 0.000000, 0.000000, 173.899994, 1557645460.895974, 4.000000, 4.000000, 4.000000, 4.000000, 4.000000
98.000000, 0.000000, 3949.743408, 4310.769043, 4166.153809, 3972.820313, 3994.358887, 450.000000, 8150.000000, 8365.000000, 0.000000, 0.000000, 0.000000, 0.000000, 181.699982, 1557645460.903774, 4.000000, 4.000000, 4.000000, 4.000000, 4.000000
99.000000, 0.000000, 3977.948730, 4357.948730, 4182.051270, 3955.384521, 4019.487061, 16159.000000, 8148.000000, 8359.000000, 0.000000, 0.000000, 0.000000, 0.000000, 189.500000, 1557645460.911574, 4.000000, 4.000000, 4.000000, 4.000000, 4.000000
100.000000, 0.000000, 3980.512695, 4364.102539, 4179.487305, 3929.743408, 4008.717773, 450.000000, 8151.000000, 8354.000000, 0.000000, 0.000000, 0.000000, 0.000000, 197.199982, 1557645460.919274, 4.000000, 4.000000, 4.000000, 4.000000, 4.000000
101.000000, 0.000000, 3960.000000, 4342.051270, 4167.692383, 3956.923096, 3978.461426, 450.000000, 8146.000000, 8350.000000, 0.000000, 0.000000, 0.000000, 0.000000, 205.000000, 1557645460.927074, 4.000000, 4.000000, 4.000000, 4.000000, 4.000000
102.000000, 0.000000, 3973.845947, 4368.717773, 4182.051270, 3995.897217, 4002.051270, 450.000000, 8146.000000, 8355.000000, 0.000000, 0.000000, 0.000000, 0.000000, 213.000000, 1557645460.935074, 4.000000, 4.000000, 4.000000, 4.000000, 4.000000
103.000000, 0.000000, 3975.384521, 4374.358887, 4174.358887, 3971.281982, 4009.743408, 16159.000000, 8147.000000, 8356.000000, 0.000000, 0.000000, 0.000000, 0.000000, 221.000000, 1557645460.943074, 4.000000, 4.000000, 4.000000, 4.000000, 4.000000
104.000000, 0.000000, 3944.615234, 4332.820313, 4145.641113, 3940.000000, 3967.692139, 450.000000, 8146.000000, 8340.000000, 0.000000, 0.000000, 0.000000, 0.000000, 228.899963, 1557645460.950974, 4.000000, 4.000000, 4.000000, 4.000000, 4.000000
105.000000, 0.000000, 3938.461426, 4310.256348, 4153.846191, 3954.871582, 3963.589600, 450.000000, 8147.000000, 8339.000000, 0.000000, 0.000000, 0.000000, 0.000000, 236.700012, 1557645460.958774, 4.000000, 4.000000, 4.000000, 4.000000, 4.000000
106.000000, 0.000000, 3947.692139, 4305.641113, 4159.487305, 3960.512695, 3980.000000, 450.000000, 8139.000000, 8348.000000, 0.000000, 0.000000, 0.000000, 0.000000, 244.500000, 1557645460.966574, 4.000000, 4.000000, 4.000000, 4.000000, 4.000000
107.000000, 0.000000, 3942.563965, 4307.692383, 4127.179199, 3944.615234, 3962.563965, 16159.000000, 8142.000000, 8349.000000, 0.000000, 0.000000, 0.000000, 0.000000, 252.299988, 1557645460.974374, 4.000000, 4.000000, 4.000000, 4.000000, 4.000000
108.000000, 0.000000, 3946.153809, 4322.051270, 4114.871582, 3947.179443, 3960.512695, 450.000000, 8144.000000, 8336.000000, 0.000000, 0.000000, 0.000000, 0.000000, 260.000000, 1557645460.982074, 4.000000, 4.000000, 4.000000, 4.000000, 4.000000
109.000000, 0.000000, 3961.025635, 4325.641113, 4127.692383, 3952.820313, 3980.000000, 450.000000, 8139.000000, 8339.000000, 0.000000, 0.000000, 0.000000, 0.000000, 268.000000, 1557645460.990074, 4.000000, 4.000000, 4.000000, 4.000000, 4.000000
110.000000, 0.000000, 3960.512695, 4310.769043, 4106.666504, 3943.076904, 3967.179443, 450.000000, 8139.000000, 8348.000000, 0.000000, 0.000000, 0.000000, 0.000000, 276.000000, 1557645460.998074, 4.000000, 4.000000, 4.000000, 4.000000, 4.000000
111.000000, 0.000000, 3950.769043, 4298.461426, 4070.769043, 3946.153809, 3947.179443, 16159.000000, 8142.000000, 8343.000000, 0.000000, 0.000000, 0.000000, 0.000000, 284.000000, 1557645461.006074, 4.000000, 4.000000, 4.000000, 4.000000, 4.000000
112.000000, 0.000000, 3962.563965, 4310.256348, 4086.666504, 3966.153809, 3972.307617, 450.000000, 8146.000000, 8341.000000, 0.000000, 0.000000, 0.000000, 0.000000, 292.000000, 1557645461.014074, 4.000000, 4.000000, 4.000000, 4.000000, 4.000000
113.000000, 0.000000, 3983.589600, 4344.102539, 4113.333008, 3977.948730, 3995.384521, 450.000000, 8147.000000, 8343.000000, 0.000000, 0.000000, 0.000000, 0.000000, 299.899963, 1557645461.021974, 4.000000, 4.000000, 4.000000, 4.000000, 4.000000
114.000000, 0.000000, 3978.974365, 4349.230469, 4088.205078, 3943.076904, 3966.666504, 450.000000, 8144.000000, 8341.000000, 0.000000, 0.000000, 0.000000, 0.000000, 307.700012, 1557645461.029774, 4.000000, 4.000000, 4.000000, 4.000000, 4.000000
115.000000, 0.000000, 3968.205078, 4305.127930, 4055.897217, 3906.153809, 3944.615234, 16159.000000, 8143.000000, 8343.000000, 0.000000, 0.000000, 0.000000, 0.000000, 315.500000, 1557645461.037574, 4.000000, 4.000000, 4.000000, 4.000000, 4.000000
116.000000, 0.000000, 3978.461426, 4295.384277, 4062.051270, 3943.076904, 3969.743408, 450.000000, 8148.000000, 8349.000000, 0.000000, 0.000000, 0.000000, 0.000000, 323.299988, 1557645461.045374, 4.000000, 4.000000, 4.000000, 4.000000, 4.000000
117.000000, 0.000000, 3983.589600, 4321.025391, 4069.743408, 3968.717773, 3977.435791, 450.000000, 8147.000000, 8338.000000, 0.000000, 0.000000, 0.000000, 0.000000, 331.099976, 1557645461.053174, 4.000000, 4.000000, 4.000000, 4.000000, 4.000000
118.000000, 0.000000, 3974.871582, 4334.871582, 4066.153809, 3951.281982, 3951.794678, 450.000000, 8144.000000, 8341.000000, 0.000000, 0.000000, 0.000000, 0.000000, 339.099976, 1557645461.061174, 4.000000, 4.000000, 4.000000, 4.000000, 4.000000
119.000000, 0.000000, 3974.871582, 4341.538574, 4063.076904, 3962.051270, 3948.717773, 16159.000000, 8138.000000, 8347.000000, 0.000000, 0.000000, 0.000000, 0.000000, 347.099976, 1557645461.069174, 4.000000, 4.000000, 4.000000, 4.000000, 4.000000
120.000000, 0.000000, 3971.281982, 4312.307617, 4034.358887, 3942.563965, 3945.128174, 450.000000, 8135.000000, 8355.000000, 0.000000, 0.000000, 0.000000, 0.000000, 355.099976, 1557645461.077174, 4.000000, 4.000000, 4.000000, 4.000000, 4.000000
121.000000, 0.000000, 3974.358887, 4277.436035, 4010.256348, 3898.974365, 3929.743408, 450.000000, 8141.000000, 8345.000000, 0.000000, 0.000000, 0.000000, 0.000000, 362.799988, 1557645461.084874, 4.000000, 4.000000, 4.000000, 4.000000, 4.000000
122.000000, 0.000000, 3993.333252, 4301.538574, 4028.205078, 3943.076904, 3944.102539, 450.000000, 8137.000000, 8352.000000, 0.000000, 0.000000, 0.000000, 0.000000, 370.599976, 1557645461.092674, 4.000000, 4.000000, 4.000000, 4.000000, 4.000000
123.000000, 0.000000, 3996.410156, 4314.871582, 4030.256348, 3981.025635, 3957.435791, 16159.000000, 8140.000000, 8361.000000, 0.000000, 0.000000, 0.000000, 0.000000, 378.399963, 1557645461.100474, 4.000000, 4.000000, 4.000000, 4.000000, 4.000000
124.000000, 0.000000, 3985.640869, 4286.153809, 3991.281982, 3914.871582, 3932.820313, 450.000000, 8137.000000, 8363.000000, 0.000000, 0.000000, 0.000000, 0.000000, 386.200012, 1557645461.108274, 4.000000, 4.000000, 4.000000, 4.000000, 4.000000
125.000000, 0.000000, 3977.948730, 4292.307617, 3967.179443, 3895.897461, 3911.794678, 450.000000, 8137.000000, 8360.000000, 0.000000, 0.000000, 0.000000, 0.000000, 394.000000, 1557645461.116074, 4.000000, 4.000000, 4.000000, 4.000000, 4.000000
126.000000, 0.000000, 3973.333252, 4302.563965, 3975.384521, 3958.461426, 3912.307617, 450.000000, 8140.000000, 8367.000000, 0.000000, 0.000000, 0.000000, 0.000000, 402.000000, 1557645461.124074, 4.000000, 4.000000, 4.000000, 4.000000, 4.000000
127.000000, 0.000000, 3981.538330, 4284.102539, 3974.871582, 3955.384521, 3903.589600, 16159.000000, 8141.000000, 8367.000000, 0.000000, 0.000000, 0.000000, 0.000000, 410.000000, 1557645461.132074, 4.000000, 4.000000, 4.000000, 4.000000, 4.000000
128.000000, 0.000000, 4010.256348, 4292.307617, 3955.384521, 3907.692139, 3905.640869, 500.000000, 8138.000000, 8360.000000, 0.000000, 0.000000, 0.000000, 0.000000, 418.000000, 1557645461.140074, 4.000000, 4.000000, 4.000000, 4.000000, 4.000000
0.000000, 0.000000, 4043.076904, 4300.512695, 3941.025635, 3911.794678, 3932.307617, 500.000000, 8138.000000, 8368.000000, 0.000000, 0.000000, 0.000000, 0.000000, 426.000000, 1557645461.148074, 4.000000, 4.000000, 4.000000, 4.000000, 4.000000
1.000000, 0.000000, 4069.743408, 4283.076660, 3945.640869, 3932.307617, 3953.333252, 500.000000, 8145.000000, 8359.000000, 0.000000, 0.000000, 0.000000, 0.000000, 433.899963, 1557645461.155974, 4.000000, 4.000000, 4.000000, 4.000000, 4.000000
2.000000, 0.000000, 4108.717773, 4285.641113, 3962.563965, 3931.281982, 3974.871582, 16196.000000, 8148.000000, 8352.000000, 0.000000, 0.000000, 0.000000, 0.000000, 441.700012, 1557645461.163774, 4.000000, 4.000000, 4.000000, 4.000000, 4.000000
3.000000, 0.000000, 4158.974121, 4313.846191, 3973.333252, 3931.281982, 4015.384521, 500.000000, 8143.000000, 8363.000000, 0.000000, 0.000000, 0.000000, 0.000000, 449.500000, 1557645461.171574, 4.000000, 4.000000, 4.000000, 4.000000, 4.000000
4.000000, 0.000000, 4193.846191, 4315.384277, 3967.179443, 3951.794678, 4042.051270, 16132.000000, 8147.000000, 8361.000000, 0.000000, 0.000000, 0.000000, 0.000000, 457.299988, 1557645461.179374, 4.000000, 4.000000, 4.000000, 4.000000, 4.000000
5.000000, 0.000000, 4191.794922, 4292.307617, 3948.205078, 3962.051270, 4034.871582, 500.000000, 8150.000000, 8350.000000, 0.000000, 0.000000, 0.000000, 0.000000, 465.000000, 1557645461.187074, 4.000000, 4.000000, 4.000000, 4.000000, 4.000000
6.000000, 0.000000, 4175.897461, 4295.384277, 3932.307617, 3952.820313, 4025.640869, 16148.000000, 8148.000000, 8350.000000, 0.000000, 0.000000, 0.000000, 0.000000, 473.000000, 1557645461.195074, 4.000000, 4.000000, 4.000000, 4.000000, 4.000000
7.000000, 0.000000, 4173.846191, 4314.358887, 3923.076904, 3948.205078, 4025.128174, 500.000000, 8147.000000, 8357.000000, 0.000000, 0.000000, 0.000000, 0.000000, 481.000000, 1557645461.203074, 4.000000, 4.000000, 4.000000, 4.000000, 4.000000
8.000000, 0.000000, 4174.358887, 4295.384277, 3923.076904, 3964.102539, 4020.000000, 500.000000, 8150.000000, 8356.000000, 0.000000, 0.000000, 0.000000, 0.000000, 489.000000, 1557645461.211074, 4.000000, 4.000000, 4.000000, 4.000000, 4.000000
9.000000, 0.000000, 4168.717773, 4270.769043, 3942.563965, 3977.435791, 4019.487061, 16109.000000, 8150.000000, 8348.000000, 0.000000, 0.000000, 0.000000, 0.000000, 496.700012, 1557645461.218774, 4.000000, 4.000000, 4.000000, 4.000000, 4.000000
10.000000, 0.000000, 4157.436035, 4295.384277, 3949.230713, 3944.615234, 4007.179443, 500.000000, 8142.000000, 8354.000000, 0.000000, 0.000000, 0.000000, 0.000000, 504.500000, 1557645461.226574, 4.000000, 4.000000, 4.000000, 4.000000, 4.000000
11.000000, 0.000000, 4146.666504, 4309.230469, 3923.076904, 3926.153809, 3974.871582, 16159.000000, 8151.000000, 8359.000000, 0.000000, 0.000000, 0.000000, 0.000000, 512.399963, 1557645461.234474, 4.000000, 4.000000, 4.000000, 4.000000, 4.000000
12.000000, 0.000000, 4134.358887, 4277.436035, 3905.640869, 3952.307617, 3951.794678, 500.000000, 8144.000000, 8348.000000, 0.000000, 0.000000, 0.000000, 0.000000, 520.200012, 1557645461.242274, 4.000000, 4.000000, 4.000000, 4.000000, 4.000000
13.000000, 0.000000, 4112.820313, 4270.256348, 3920.512695, 3963.076904, 3945.640869, 500.000000, 8143.000000, 8348.000000, 0.000000, 0.000000, 0.000000, 0.000000, 528.000000, 1557645461.250074, 4.000000, 4.000000, 4.000000, 4.000000, 4.000000
14.000000, 0.000000, 4094.358887, 4285.127930, 3931.794678, 3944.102539, 3941.538330, 450.000000, 8143.000000, 8359.000000, 0.000000, 0.000000, 0.000000, 0.000000, 536.000000, 1557645461.258074, 4.000000, 4.000000, 4.000000, 4.000000, 4.000000
15.000000, 0.000000, 4091.281982, 4268.717773, 3911.794678, 3930.256348, 3933.845947, 16159.000000, 8142.000000, 8350.000000, 0.000000, 0.000000, 0.000000, 0.000000, 544.000000, 1557645461.266074, 4.000000, 4.000000, 4.000000, 4.000000, 4.000000
16.000000, 0.000000, 4091.794678, 4262.563965, 3893.845947, 3948.205078, 3922.563965, 0.000000, 8148.000000, 8357.000000, 0.000000, 0.000000, 0.000000, 0.000000, 552.000000, 1557645461.274074, 4.000000, 4.000000, 4.000000, 4.000000, 4.000000
17.000000, 0.000000, 4083.076904, 4286.666504, 3895.897461, 3947.179443, 3915.384521, 0.000000, 8134.000000, 8356.000000, 0.000000, 0.000000, 0.000000, 0.000000, 559.899963, 1557645461.281974, 4.000000, 4.000000, 4.000000, 4.000000, 4.000000
18.000000, 0.000000, 4075.384521, 4265.127930, 3882.563965, 3908.205078, 3918.461426, 0.000000, 8137.000000, 8347.000000, 0.000000, 0.000000, 0.000000, 0.000000, 567.899963, 1557645461.289974, 4.000000, 4.000000, 4.000000, 4.000000, 4.000000
19.000000, 0.000000, 4076.410156, 4235.384277, 3861.025635, 3896.410156, 3904.102539, 0.000000, 8138.000000, 8344.000000, 0.000000, 0.000000, 0.000000, 0.000000, 575.700012, 1557645461.297774, 4.000000, 4.000000, 4.000000, 4.000000, 4.000000
20.000000, 0.000000, 4077.948730, 4251.794922, 3867.692139, 3918.974365, 3887.692139, 0.000000, 8138.000000, 8358.000000, 0.000000, 0.000000, 0.000000, 0.000000, 583.500000, 1557645461.305574, 4.000000, 4.000000, 4.000000, 4.000000, 4.000000
21.000000, 0.000000, 4073.845947, 4250.256348, 3874.871582, 3932.307617, 3903.076904, 0.000000, 8141.000000, 8349.000000, 0.000000, 0.000000, 0.000000, 0.000000, 591.299988, 1557645461.313374, 4.000000, 4.000000, 4.000000, 4.000000, 4.000000
22.000000, 0.000000, 4057.948730, 4239.487305, 3852.820313, 3930.769043, 3903.076904, 0.000000, 8135.000000, 8339.000000, 0.000000, 0.000000, 0.000000, 0.000000, 599.099976, 1557645461.321174, 4.000000, 4.000000, 4.000000, 4.000000, 4.000000
23.000000, 0.000000, 4046.666504, 4267.179199, 3857.435791, 3937.948730, 3872.307617, 0.000000, 8143.000000, 8343.000000, 0.000000, 0.000000, 0.000000, 0.000000, 607.099976, 1557645461.329174, 4.000000, 4.000000, 4.000000, 4.000000, 4.000000
24.000000, 0.000000, 4066.666504, 4269.743652, 3905.128174, 3950.769043, 3880.000000, 0.000000, 8145.000000, 8347.000000, 0.000000, 0.000000, 0.000000, 0.000000, 615.000000, 1557645461.337074, 4.000000, 4.000000, 4.000000, 4.000000, 4.000000
25.000000, 0.000000, 4081.025635, 4249.230469, 3915.897461, 3943.589600, 3910.769043, 0.000000, 8144.000000, 8352.000000, 0.000000, 0.000000, 0.000000, 0.000000, 623.000000, 1557645461.345074, 4.000000, 4.000000, 4.000000, 4.000000, 4.000000
26.000000, 0.000000, 4051.794678, 4246.153809, 3880.512695, 3918.461426, 3889.743408, 0.000000, 8145.000000, 8349.000000, 0.000000, 0.000000, 0.000000, 0.000000, 630.700012, 1557645461.352774, 4.000000, 4.000000, 4.000000, 4.000000, 4.000000
27.000000, 0.000000, 4036.410156, 4233.846191, 3872.307617, 3915.384521, 3868.717773, 0.000000, 8145.000000, 8354.000000, 0.000000, 0.000000, 0.000000, 0.000000, 638.500000, 1557645461.360574, 4.000000, 4.000000, 4.000000, 4.000000, 4.000000
28.000000, 0.000000, 4065.640869, 4231.281738, 3885.128174, 3944.102539, 3890.769043, 0.000000, 8149.000000, 8345.000000, 0.000000, 0.000000, 0.000000, 0.000000, 646.299988, 1557645461.368374, 4.000000, 4.000000, 4.000000, 4.000000, 4.000000
29.000000, 0.000000, 4077.435791, 4242.051270, 3877.435791, 3951.794678, 3886.666504, 0.000000, 8150.000000, 8338.000000, 0.000000, 0.000000, 0.000000, 0.000000, 654.099976, 1557645461.376174, 4.000000, 4.000000, 4.000000, 4.000000, 4.000000
30.000000, 0.000000, 4058.974365, 4225.641113, 3867.179443, 3941.538330, 3855.384521, 0.000000, 8144.000000, 8353.000000, 0.000000, 0.000000, 0.000000, 0.000000, 662.000000, 1557645461.384074, 4.000000, 4.000000, 4.000000, 4.000000, 4.000000
31.000000, 0.000000, 4056.923096, 4203.589844, 3864.615234, 3931.794678, 3863.076904, 0.000000, 8148.000000, 8340.000000, 0.000000, 0.000000, 0.000000, 0.000000, 670.000000, 1557645461.392074, 4.000000, 4.000000, 4.000000, 4.000000, 4.000000
32.000000, 0.000000, 4058.461426, 4227.179199, 3862.563965, 3908.717773, 3886.153809, 0.000000, 8147.000000, 8344.000000, 0.000000, 0.000000, 0.000000, 0.000000, 678.000000, 1557645461.400074, 4.000000, 4.000000, 4.000000, 4.000000, 4.000000
33.000000, 0.000000, 4048.717773, 4262.051270, 3862.563965, 3921.538330, 3874.871582, 0.000000, 8151.000000, 8352.000000, 0.000000, 0.000000, 0.000000, 0.000000, 686.000000, 1557645461.408074, 4.000000, 4.000000, 4.000000, 4.000000, 4.000000
34.000000, 0.000000, 4055.897217, 4253.333008, 3855.897461, 3950.769043, 3857.948730, 0.000000, 8145.000000, 8349.000000, 0.000000, 0.000000, 0.000000, 0.000000, 693.899963, 1557645461.415974, 4.000000, 4.000000, 4.000000, 4.000000, 4.000000
35.000000, 0.000000, 4058.974365, 4217.948730, 3826.153809, 3928.205078, 3840.000000, 0.000000, 8151.000000, 8344.000000, 0.000000, 0.000000, 0.000000, 0.000000, 701.899988, 1557645461.423974, 4.000000, 4.000000, 4.000000, 4.000000, 4.000000
36.000000, 0.000000, 4040.000000, 4216.410156, 3798.974365, 3902.563965, 3805.640869, 0.000000, 8147.000000, 8352.000000, 0.000000, 0.000000, 0.000000, 0.000000, 709.699987, 1557645461.431774, 4.000000, 4.000000, 4.000000, 4.000000, 4.000000
37.000000, 0.000000, 4046.666504, 4246.666504, 3806.666504, 3890.769043, 3798.461426, 0.000000, 8148.000000, 8354.000000, 0.000000, 0.000000, 0.000000, 0.000000, 717.499989, 1557645461.439574, 4.000000, 4.000000, 4.000000, 4.000000, 4.000000
38.000000, 0.000000, 4066.666504, 4236.410156, 3825.128174, 3880.000000, 3817.435791, 0.000000, 8152.000000, 8354.000000, 0.000000, 0.000000, 0.000000, 0.000000, 725.299988, 1557645461.447374, 4.000000, 4.000000, 4.000000, 4.000000, 4.000000
39.000000, 0.000000, 4049.230713, 4212.307617, 3812.820313, 3910.769043, 3808.717773, 0.000000, 8147.000000, 8357.000000, 0.000000, 0.000000, 0.000000, 0.000000, 732.999989, 1557645461.455074, 4.000000, 4.000000, 4.000000, 4.000000, 4.000000
40.000000, 0.000000, 4028.717773, 4217.948730, 3783.076904, 3929.743408, 3783.589600, 0.000000, 8147.000000, 8352.000000, 0.000000, 0.000000, 0.000000, 0.000000, 740.999989, 1557645461.463074, 4.000000, 4.000000, 4.000000, 4.000000, 4.000000
41.000000, 0.000000, 4035.384521, 4216.410156, 3770.769043, 3882.563965, 3777.435791, 0.000000, 8144.000000, 8347.000000, 0.000000, 0.000000, 0.000000, 0.000000, 748.999989, 1557645461.471074, 4.000000, 4.000000, 4.000000, 4.000000, 4.000000
42.000000, 0.000000, 4032.307617, 4199.487305, 3766.153809, 3857.435791, 3774.871582, 0.000000, 8147.000000, 8344.000000, 0.000000, 0.000000, 0.000000, 0.000000, 756.999989, 1557645461.479074, 4.000000, 4.000000, 4.000000, 4.000000, 4.000000
43.000000, 0.000000, 4014.871582, 4192.820313, 3746.153809, 3886.153809, 3758.974365, 0.000000, 8143.000000, 8355.000000, 0.000000, 0.000000, 0.000000, 0.000000, 764.699989, 1557645461.486774, 4.000000, 4.000000, 4.000000, 4.000000, 4.000000
44.000000, 0.000000, 4012.820313, 4203.589844, 3729.230713, 3884.102539, 3748.717773, 0.000000, 8140.000000, 8356.000000, 0.000000, 0.000000, 0.000000, 0.000000, 772.499985, 1557645461.494574, 4.000000, 4.000000, 4.000000, 4.000000, 4.000000
45.000000, 0.000000, 4029.230713, 4195.384277, 3741.538330, 3862.563965, 3767.179443, 0.000000, 8145.000000, 8344.000000, 0.000000, 0.000000, 0.000000, 0.000000, 780.299988, 1557645461.502374, 4.000000, 4.000000, 4.000000, 4.000000, 4.000000
46.000000, 0.000000, 4043.076904, 4168.205078, 3761.538330, 3888.205078, 3791.281982, 0.000000, 8146.000000, 8358.000000, 0.000000, 0.000000, 0.000000, 0.000000, 788.199989, 1557645461.510274, 4.000000, 4.000000, 4.000000, 4.000000, 4.000000
47.000000, 0.000000, 4041.538330, 4186.153809, 3747.179443, 3901.025635, 3784.102539, 0.000000, 8144.000000, 8361.000000, 0.000000, 0.000000, 0.000000, 0.000000, 795.999985, 1557645461.518074, 4.000000, 4.000000, 4.000000, 4.000000, 4.000000
48.000000, 0.000000, 4030.769043, 4224.615234, 3725.128174, 3864.102539, 3767.692139, 0.000000, 8140.000000, 8346.000000, 0.000000, 0.000000, 0.000000, 0.000000, 803.999985, 1557645461.526074, 4.000000, 4.000000, 4.000000, 4.000000, 4.000000
49.000000, 0.000000, 4028.717773, 4203.589844, 3733.845947, 3863.076904, 3766.666504, 0.000000, 8146.000000, 8347.000000, 0.000000, 0.000000, 0.000000, 0.000000, 811.999985, 1557645461.534074, 4.000000, 4.000000, 4.000000, 4.000000, 4.000000
50.000000, 0.000000, 4037.948730, 4167.179199, 3742.051270, 3908.205078, 3762.051270, 0.000000, 8142.000000, 8358.000000, 0.000000, 0.000000, 0.000000, 0.000000, 819.999985, 1557645461.542074, 4.000000, 4.000000, 4.000000, 4.000000, 4.000000
51.000000, 0.000000, 4050.769043, 4176.922852, 3735.384521, 3923.589600, 3770.256348, 0.000000, 8144.000000, 8349.000000, 0.000000, 0.000000, 0.000000, 0.000000, 827.699982, 1557645461.549774, 4.000000, 4.000000, 4.000000, 4.000000, 4.000000
52.000000, 0.000000, 4064.615234, 4194.871582, 3726.153809, 3893.845947, 3797.948730, 0.000000, 8143.000000, 8349.000000, 0.000000, 0.000000, 0.000000, 0.000000, 835.499985, 1557645461.557574, 4.000000, 4.000000, 4.000000, 4.000000, 4.000000
53.000000, 0.000000, 4064.102539, 4198.974121, 3714.358887, 3872.307617, 3800.512695, 0.000000, 8143.000000, 8355.000000, 0.000000, 0.000000, 0.000000, 0.000000, 843.299988, 1557645461.565374, 4.000000, 4.000000, 4.000000, 4.000000, 4.000000
54.000000, 0.000000, 4042.563965, 4201.538574, 3709.743408, 3879.487061, 3774.358887, 0.000000, 8149.000000, 8353.000000, 0.000000, 0.000000, 0.000000, 0.000000, 851.099991, 1557645461.573174, 4.000000, 4.000000, 4.000000, 4.000000, 4.000000
55.000000, 0.000000, 4037.948730, 4198.461426, 3708.717773, 3883.589600, 3763.076904, 0.000000, 8144.000000, 8341.000000, 0.000000, 0.000000, 0.000000, 0.000000, 858.999985, 1557645461.581074, 4.000000, 4.000000, 4.000000, 4.000000, 4.000000
56.000000, 0.000000, 4057.948730, 4200.512695, 3707.179443, 3860.000000, 3774.358887, 0.000000, 8141.000000, 8351.000000, 0.000000, 0.000000, 0.000000, 0.000000, 866.899994, 1557645461.588974, 4.000000, 4.000000, 4.000000, 4.000000, 4.000000
57.000000, 0.000000, 4066.153809, 4204.102539, 3726.153809, 3862.051270, 3784.102539, 0.000000, 8145.000000, 8355.000000, 0.000000, 0.000000, 0.000000, 0.000000, 874.899994, 1557645461.596974, 4.000000, 4.000000, 4.000000, 4.000000, 4.000000
58.000000, 0.000000, 4061.025635, 4193.846191, 3743.076904, 3903.076904, 3785.128174, 0.000000, 8150.000000, 8343.000000, 0.000000, 0.000000, 0.000000, 0.000000, 882.899994, 1557645461.604974, 4.000000, 4.000000, 4.000000, 4.000000, 4.000000
59.000000, 0.000000, 4067.179443, 4198.461426, 3721.025635, 3900.000000, 3776.923096, 0.000000, 8139.000000, 8342.000000, 0.000000, 0.000000, 0.000000, 0.000000, 890.899994, 1557645461.612974, 4.000000, 4.000000, 4.000000, 4.000000, 4.000000
60.000000, 0.000000, 4077.948730, 4212.820313, 3703.589600, 3874.358887, 3774.358887, 0.000000, 8138.000000, 8349.000000, 0.000000, 0.000000, 0.000000, 0.000000, 898.599991, 1557645461.620674, 4.000000, 4.000000, 4.000000, 4.000000, 4.000000
61.000000, 0.000000, 4080.512695, 4198.974121, 3707.179443, 3871.281982, 3782.051270, 0.000000, 8143.000000, 8341.000000, 0.000000, 0.000000, 0.000000, 0.000000, 906.399994, 1557645461.628474, 4.000000, 4.000000, 4.000000, 4.000000, 4.000000
62.000000, 0.000000, 4092.307617, 4194.871582, 3706.153809, 3876.410156, 3785.128174, 0.000000, 8143.000000, 8345.000000, 0.000000, 0.000000, 0.000000, 0.000000, 914.199982, 1557645461.636274, 4.000000, 4.000000, 4.000000, 4.000000, 4.000000
63.000000, 0.000000, 4087.692139, 4207.179199, 3702.051270, 3881.538330, 3769.230713, 0.000000, 8142.000000, 8355.000000, 0.000000, 0.000000, 0.000000, 0.000000, 922.099991, 1557645461.644174, 4.000000, 4.000000, 4.000000, 4.000000, 4.000000
64.000000, 0.000000, 4068.205078, 4210.769043, 3706.153809, 3874.871582, 3771.794678, 500.000000, 8135.000000, 8353.000000, 0.000000, 0.000000, 0.000000, 0.000000, 929.999985, 1557645461.652074, 4.000000, 4.000000, 4.000000, 4.000000, 4.000000
65.000000, 0.000000, 4079.487061, 4219.487305, 3704.615234, 3872.820313, 3805.640869, 500.000000, 8143.000000, 8352.000000, 0.000000, 0.000000, 0.000000, 0.000000, 937.999985, 1557645461.660074, 4.000000, 4.000000, 4.000000, 4.000000, 4.000000
66.000000, 0.000000, 4097.436035, 4222.051270, 3685.128174, 3890.769043, 3808.717773, 16192.000000, 8147.000000, 8349.000000, 0.000000, 0.000000, 0.000000, 0.000000, 945.999985, 1557645461.668074, 4.000000, 4.000000, 4.000000, 4.000000, 4.000000
67.000000, 0.000000, 4087.179443, 4196.922852, 3675.897461, 3906.666504, 3794.358887, 500.000000, 8144.000000, 8347.000000, 0.000000, 0.000000, 0.000000, 0.000000, 954.000000, 1557645461.676074, 4.000000, 4.000000, 4.000000, 4.000000, 4.000000
68.000000, 0.000000, 4072.820313, 4181.538574, 3690.769043, 3898.974365, 3810.256348, 16102.000000, 8146.000000, 8345.000000, 0.000000, 0.000000, 0.000000, 0.000000, 961.699982, 1557645461.683774, 4.000000, 4.000000, 4.000000, 4.000000, 4.000000
69.000000, 0.000000, 4070.256348, 4187.179199, 3684.615234, 3877.948730, 3818.461426, 500.000000, 8148.000000, 8349.000000, 0.000000, 0.000000, 0.000000, 0.000000, 969.500000, 1557645461.691574, 4.000000, 4.000000, 4.000000, 4.000000, 4.000000
70.000000, 0.000000, 4065.128174, 4183.589844, 3648.205078, 3867.692139, 3805.640869, 16154.000000, 8146.000000, 8349.000000, 0.000000, 0.000000, 0.000000, 0.000000, 977.299988, 1557645461.699374, 4.000000, 4.000000, 4.000000, 4.000000, 4.000000
71.000000, 0.000000, 4064.615234, 4190.769043, 3649.230713, 3896.410156, 3821.025635, 500.000000, 8153.000000, 8342.000000, 0.000000, 0.000000, 0.000000, 0.000000, 985.099976, 1557645461.707174, 4.000000, 4.000000, 4.000000, 4.000000, 4.000000
72.000000, 0.000000, 4068.717773, 4201.538574, 3677.435791, 3917.435791, 3844.102539, 500.000000, 8148.000000, 8335.000000, 0.000000, 0.000000, 0.000000, 0.000000, 993.099976, 1557645461.715174, 4.000000, 4.000000, 4.000000, 4.000000, 4.000000
73.000000, 0.000000, 4061.538330, 4189.743652, 3662.051270, 3892.820313, 3832.307617, 324.000000, 8150.000000, 8342.000000, 0.000000, 0.000000, 0.000000, 1.000000, 1.000000, 1557645461.723074, 4.000000, 4.000000, 4.000000, 4.000000, 4.000000
74.000000, 0.000000, 4063.076904, 4183.076660, 3630.256348, 3900.000000, 3823.589600, 500.000000, 8152.000000, 8341.000000, 0.000000, 0.000000, 0.000000, 1.000000, 9.000000, 1557645461.731074, 4.000000, 4.000000, 4.000000, 4.000000, 4.000000
75.000000, 0.000000, 4060.512695, 4187.692383, 3619.487061, 3913.333252, 3826.666504, 16167.000000, 8150.000000, 8327.000000, 0.000000, 0.000000, 0.000000, 1.000000, 17.000000, 1557645461.739074, 4.000000, 4.000000, 4.000000, 4.000000, 4.000000
76.000000, 0.000000, 4042.051270, 4180.512695, 3600.512695, 3870.769043, 3807.692139, 500.000000, 8151.000000, 8340.000000, 0.000000, 0.000000, 0.000000, 1.000000, 25.000000, 1557645461.747074, 4.000000, 4.000000, 4.000000, 4.000000, 4.000000
77.000000, 0.000000, 4033.333252, 4173.846191, 3568.717773, 3852.307617, 3782.051270, 500.000000, 8149.000000, 8344.000000, 0.000000, 0.000000, 0.000000, 1.000000, 32.699982, 1557645461.754774, 4.000000, 4.000000, 4.000000, 4.000000, 4.000000
78.000000, 0.000000, 4047.692139, 4188.717773, 3571.281982, 3890.769043, 3800.000000, 450.000000, 8144.000000, 8342.000000, 0.000000, 0.000000, 0.000000, 1.000000, 40.500000, 1557645461.762574, 4.000000, 4.000000, 4.000000, 4.000000, 4.000000
79.000000, 0.000000, 4064.102539, 4202.563965, 3594.358887, 3906.153809, 3837.948730, 16167.000000, 8147.000000, 8341.000000, 0.000000, 0.000000, 0.000000, 1.000000, 48.299988, 1557645461.770374, 4.000000, 4.000000, 4.000000, 4.000000, 4.000000
80.000000, 0.000000, 4063.076904, 4205.641113, 3580.000000, 3876.923096, 3835.384521, 450.000000, 8147.000000, 8338.000000, 0.000000, 0.000000, 0.000000, 1.000000, 56.199982, 1557645461.778274, 4.000000, 4.000000, 4.000000, 4.000000, 4.000000
81.000000, 0.000000, 4053.845947, 4198.461426, 3547.692139, 3876.410156, 3807.179443, 450.000000, 8146.000000, 8337.000000, 0.000000, 0.000000, 0.000000, 1.000000, 64.099976, 1557645461.786174, 4.000000, 4.000000, 4.000000, 4.000000, 4.000000
82.000000, 0.000000, 4061.025635, 4189.230469, 3551.794678, 3894.358887, 3810.256348, 450.000000, 8147.000000, 8350.000000, 0.000000, 0.000000, 0.000000, 1.000000, 72.099976, 1557645461.794174, 4.000000, 4.000000, 4.000000, 4.000000, 4.000000
83.000000, 0.000000, 4080.000000, 4192.307617, 3559.487061, 3877.435791, 3839.487061, 16167.000000, 8140.000000, 8351.000000, 0.000000, 0.000000, 0.000000, 1.000000, 80.000000, 1557645461.802074, 4.000000, 4.000000, 4.000000, 4.000000, 4.000000
84.000000, 0.000000, 4084.102539, 4206.666504, 3542.051270, 3878.461426, 3851.281982, 450.000000, 8144.000000, 8352.000000, 0.000000, 0.000000, 0.000000, 1.000000, 87.799988, 1557645461.809874, 4.000000, 4.000000, 4.000000, 4.000000, 4.000000
85.000000, 0.000000, 4081.025635, 4207.692383, 3548.717773, 3921.538330, 3841.025635, 450.000000, 8143.000000, 8349.000000, 0.000000, 0.000000, 0.000000, 1.000000, 95.500000, 1557645461.817574, 4.000000, 4.000000, 4.000000, 4.000000, 4.000000
86.000000, 0.000000, 4088.717773, 4188.717773, 3576.923096, 3930.256348, 3847.692139, 450.000000, 8137.000000, 8358.000000, 0.000000, 0.000000, 0.000000, 1.000000, 103.299988, 1557645461.825374, 4.000000, 4.000000, 4.000000, 4.000000, 4.000000
87.000000, 0.000000, 4097.948730, 4189.230469, 3568.717773, 3885.640869, 3868.717773, 16167.000000, 8142.000000, 8367.000000, 0.000000, 0.000000, 0.000000, 1.000000, 111.099976, 1557645461.833174, 4.000000, 4.000000, 4.000000, 4.000000, 4.000000
88.000000, 0.000000, 4105.127930, 4214.358887, 3548.717773, 3870.256348, 3862.051270, 450.000000, 8144.000000, 8349.000000, 0.000000, 0.000000, 0.000000, 1.000000, 119.099976, 1557645461.841174, 4.000000, 4.000000, 4.000000, 4.000000, 4.000000
89.000000, 0.000000, 4111.281738, 4220.512695, 3554.871826, 3900.000000, 3848.717773, 450.000000, 8150.000000, 8357.000000, 0.000000, 0.000000, 0.000000, 1.000000, 127.000000, 1557645461.849074, 4.000000, 4.000000, 4.000000, 4.000000, 4.000000
90.000000, 0.000000, 4105.641113, 4200.512695, 3556.923096, 3909.743408, 3854.871582, 450.000000, 8144.000000, 8371.000000, 0.000000, 0.000000, 0.000000, 1.000000, 135.000000, 1557645461.857074, 4.000000, 4.000000, 4.000000, 4.000000, 4.000000
91.000000, 0.000000, 4105.641113, 4205.641113, 3561.538330, 3903.589600, 3868.717773, 16167.000000, 8142.000000, 8360.000000, 0.000000, 0.000000, 0.000000, 1.000000, 143.000000, 1557645461.865074, 4.000000, 4.000000, 4.000000, 4.000000, 4.000000
92.000000, 0.000000, 4121.538574, 4223.589844, 3585.128174, 3902.563965, 3888.205078, 450.000000, 8145.000000, 8361.000000, 0.000000, 0.000000, 0.000000, 1.000000, 151.000000, 1557645461.873074, 4.000000, 4.000000, 4.000000, 4.000000, 4.000000
93.000000, 0.000000, 4130.256348, 4210.769043, 3582.051270, 3905.128174, 3898.461426, 450.000000, 8152.000000, 8363.000000, 0.000000, 0.000000, 0.000000, 1.000000, 159.000000, 1557645461.881074, 4.000000, 4.000000, 4.000000, 4.000000, 4.000000
94.000000, 0.000000, 4130.769043, 4201.538574, 3562.051270, 3910.769043, 3888.717773, 450.000000, 8156.000000, 8359.000000, 0.000000, 0.000000, 0.000000, 1.000000, 166.699982, 1557645461.888774, 4.000000, 4.000000, 4.000000, 4.000000, 4.000000
95.000000, 0.000000, 4143.076660, 4219.487305, 3578.461426, 3919.487061, 3888.717773, 16167.000000, 8150.000000, 8364.000000, 0.000000, 0.000000, 0.000000, 1.000000, 174.500000, 1557645461.896574, 4.000000, 4.000000, 4.000000, 4.000000, 4.000000
96.000000, 0.000000, 4153.846191, 4225.127930, 3597.435791, 3931.794678, 3898.461426, 450.000000, 8146.000000, 8370.000000, 0.000000, 0.000000, 0.000000, 1.000000, 182.299988, 1557645461.904374, 4.000000, 4.000000, 4.000000, 4.000000, 4.000000
97.000000, 0.000000, 4148.205078, 4206.153809, 3581.538330, 3936.923096, 3894.871582, 450.000000, 8154.000000, 8367.000000, 0.000000, 0.000000, 0.000000, 1.000000, 190.299988, 1557645461.912374, 4.000000, 4.000000, 4.000000, 4.000000, 4.000000
98.000000, 0.000000, 4138.461426, 4203.589844, 3566.666504, 3909.230713, 3890.769043, 450.000000, 8148.000000, 8368.000000, 0.000000, 0.000000, 0.000000, 1.000000, 198.099976, 1557645461.920174, 4.000000, 4.000000, 4.000000, 4.000000, 4.000000
99.000000, 0.000000, 4141.538574, 4216.922852, 3573.845947, 3882.563965, 3889.743408, 16167.000000, 8140.000000, 8376.000000, 0.000000, 0.000000, 0.000000, 1.000000, 206.099976, 1557645461.928174, 4.000000, 4.000000, 4.000000, 4.000000, 4.000000
100.000000, 0.000000, 4150.256348, 4216.410156, 3586.153809, 3925.640869, 3892.820313, 450.000000, 8145.000000, 8376.000000, 0.000000, 0.000000, 0.000000, 1.000000, 214.099976, 1557645461.936174, 4.000000, 4.000000, 4.000000, 4.000000, 4.000000
101.000000, 0.000000, 4157.436035, 4205.641113, 3594.871826, 3941.025635, 3908.205078, 450.000000, 8145.000000, 8364.000000, 0.000000, 0.000000, 0.000000, 1.000000, 221.899963, 1557645461.943974, 4.000000, 4.000000, 4.000000, 4.000000, 4.000000
102.000000, 0.000000, 4165.127930, 4206.666504, 3594.358887, 3889.230713, 3912.820313, 450.000000, 8146.000000, 8357.000000, 0.000000, 0.000000, 0.000000, 1.000000, 229.599976, 1557645461.951674, 4.000000, 4.000000, 4.000000, 4.000000, 4.000000
103.000000, 0.000000, 4172.307617, 4225.641113, 3586.666504, 3896.923096, 3904.615234, 16167.000000, 8145.000000, 8367.000000, 0.000000, 0.000000, 0.000000, 1.000000, 237.399963, 1557645461.959474, 4.000000, 4.000000, 4.000000, 4.000000, 4.000000
104.000000, 0.000000, 4170.769043, 4225.127930, 3588.205078, 3944.615234, 3912.820313, 450.000000, 8135.000000, 8359.000000, 0.000000, 0.000000, 0.000000, 1.000000, 245.200012, 1557645461.967274, 4.000000, 4.000000, 4.000000, 4.000000, 4.000000
105.000000, 0.000000, 4154.358887, 4193.333008, 3591.281982, 3939.487061, 3911.794678, 450.000000, 8140.000000, 8351.000000, 0.000000, 0.000000, 0.000000, 1.000000, 253.099976, 1557645461.975174, 4.000000, 4.000000, 4.000000, 4.000000, 4.000000
106.000000, 0.000000, 4155.384277, 4172.307617, 3575.384521, 3909.743408, 3897.435791, 450.000000, 8144.000000, 8353.000000, 0.000000, 0.000000, 0.000000, 1.000000, 261.000000, 1557645461.983074, 4.000000, 4.000000, 4.000000, 4.000000, 4.000000
107.000000, 0.000000, 4178.461426, 4190.769043, 3568.205078, 3913.845947, 3915.384521, 16167.000000, 8142.000000, 8352.000000, 0.000000, 0.000000, 0.000000, 1.000000, 269.000000, 1557645461.991074, 4.000000, 4.000000, 4.000000, 4.000000, 4.000000
108.000000, 0.000000, 4183.589844, 4202.563965, 3590.769043, 3941.538330, 3930.769043, 450.000000, 8140.000000, 8348.000000, 0.000000, 0.000000, 0.000000, 1.000000, 277.000000, 1557645461.999074, 4.000000, 4.000000, 4.000000, 4.000000, 4.000000
109.000000, 0.000000, 4175.384277, 4184.615234, 3600.000000, 3943.589600, 3909.743408, 450.000000, 8139.000000, 8337.000000, 0.000000, 0.000000, 0.000000, 1.000000, 285.000000, 1557645462.007074, 4.000000, 4.000000, 4.000000, 4.000000, 4.000000
110.000000, 0.000000, 4177.948730, 4177.436035, 3592.820313, 3925.128174, 3909.743408, 450.000000, 8142.000000, 8336.000000, 0.000000, 0.000000, 0.000000, 1.000000, 292.799988, 1557645462.014874, 4.000000, 4.000000, 4.000000, 4.000000, 4.000000
111.000000, 0.000000, 4174.871582, 4187.179199, 3599.487061, 3935.897461, 3923.589600, 16167.000000, 8143.000000, 8338.000000, 0.000000, 0.000000, 0.000000, 1.000000, 300.500000, 1557645462.022574, 4.000000, 4.000000, 4.000000, 4.000000, 4.000000
112.000000, 0.000000, 4160.000000, 4202.563965, 3601.025635, 3932.307617, 3900.512695, 450.000000, 8146.000000, 8344.000000, 0.000000, 0.000000, 0.000000, 1.000000, 308.299988, 1557645462.030374, 4.000000, 4.000000, 4.000000, 4.000000, 4.000000
113.000000, 0.000000, 4146.666504, 4218.461426, 3596.923096, 3902.563965, 3882.563965, 450.000000, 8150.000000, 8341.000000, 0.000000, 0.000000, 0.000000, 1.000000, 316.099976, 1557645462.038174, 4.000000, 4.000000, 4.000000, 4.000000, 4.000000
114.000000, 0.000000, 4134.358887, 4218.974121, 3608.717773, 3930.769043, 3894.358887, 450.000000, 8153.000000, 8330.000000, 0.000000, 0.000000, 0.000000, 1.000000, 324.099976, 1557645462.046174, 4.000000, 4.000000, 4.000000, 4.000000, 4.000000
115.000000, 0.000000, 4146.153809, 4205.641113, 3610.769043, 3952.307617, 3888.205078, 16167.000000, 8146.000000, 8326.000000, 0.000000, 0.000000, 0.000000, 1.000000, 332.000000, 1557645462.054074, 4.000000, 4.000000, 4.000000, 4.000000, 4.000000
116.000000, 0.000000, 4163.589844, 4198.461426, 3605.128174, 3918.974365, 3873.845947, 450.000000, 8144.000000, 8346.000000, 0.000000, 0.000000, 0.000000, 1.000000, 340.000000, 1557645462.062074, 4.000000, 4.000000, 4.000000, 4.000000, 4.000000
117.000000, 0.000000, 4148.205078, 4202.051270, 3615.384521, 3920.512695, 3890.769043, 450.000000, 8147.000000, 8347.000000, 0.000000, 0.000000, 0.000000, 1.000000, 348.000000, 1557645462.070074, 4.000000, 4.000000, 4.000000, 4.000000, 4.000000
118.000000, 0.000000, 4154.358887, 4208.717773, 3629.743408, 3948.205078, 3919.487061, 450.000000, 8148.000000, 8338.000000, 0.000000, 0.000000, 0.000000, 1.000000, 355.799988, 1557645462.077874, 4.000000, 4.000000, 4.000000, 4.000000, 4.000000
119.000000, 0.000000, 4188.205078, 4215.897461, 3638.461426, 3947.692139, 3922.563965, 16167.000000, 8147.000000, 8344.000000, 0.000000, 0.000000, 0.000000, 1.000000, 363.500000, 1557645462.085574, 4.000000, 4.000000, 4.000000, 4.000000, 4.000000
120.000000, 0.000000, 4182.563965, 4227.692383, 3647.179443, 3940.000000, 3915.384521, 450.000000, 8150.000000, 8350.000000, 0.000000, 0.000000, 0.000000, 1.000000, 371.299988, 1557645462.093374, 4.000000, 4.000000, 4.000000, 4.000000, 4.000000
121.000000, 0.000000, 4162.563965, 4235.897461, 3634.358887, 3924.615234, 3917.435791, 450.000000, 8144.000000, 8353.000000, 0.000000, 0.000000, 0.000000, 1.000000, 379.099976, 1557645462.101174, 4.000000, 4.000000, 4.000000, 4.000000, 4.000000
122.000000, 0.000000, 4181.025391, 4229.743652, 3611.794678, 3916.410156, 3913.845947, 450.000000, 8140.000000, 8355.000000, 0.000000, 0.000000, 0.000000, 1.000000, 387.099976, 1557645462.109174, 4.000000, 4.000000, 4.000000, 4.000000, 4.000000
123.000000, 0.000000, 4198.461426, 4226.666504, 3614.358887, 3928.717773, 3914.871582, 16167.000000, 8147.000000, 8347.000000, 0.000000, 0.000000, 0.000000, 1.000000, 395.000000, 1557645462.117074, 4.000000, 4.000000, 4.000000, 4.000000, 4.000000
124.000000, 0.000000, 4185.641113, 4230.769043, 3622.563965, 3915.384521, 3928.717773, 450.000000, 8152.000000, 8348.000000, 0.000000, 0.000000, 0.000000, 1.000000, 403.000000, 1557645462.125074, 4.000000, 4.000000, 4.000000, 4.000000, 4.000000
125.000000, 0.000000, 4168.717773, 4218.461426, 3627.692139, 3894.871582, 3921.538330, 450.000000, 8145.000000, 8358.000000, 0.000000, 0.000000, 0.000000, 1.000000, 411.000000, 1557645462.133074, 4.000000, 4.000000, 4.000000, 4.000000, 4.000000
126.000000, 0.000000, 4166.666504, 4208.205078, 3640.000000, 3910.769043, 3903.076904, 450.000000, 8145.000000, 8364.000000, 0.000000, 0.000000, 0.000000, 1.000000, 418.799988, 1557645462.140874, 4.000000, 4.000000, 4.000000, 4.000000, 4.000000
127.000000, 0.000000, 4177.436035, 4229.743652, 3648.717773, 3924.615234, 3917.948730, 16167.000000, 8145.000000, 8358.000000, 0.000000, 0.000000, 0.000000, 1.000000, 426.599976, 1557645462.148674, 4.000000, 4.000000, 4.000000, 4.000000, 4.000000
128.000000, 0.000000, 4193.846191, 4237.948730, 3648.717773, 3922.563965, 3937.435791, 500.000000, 8137.000000, 8361.000000, 0.000000, 0.000000, 0.000000, 1.000000, 434.299988, 1557645462.156374, 4.000000, 4.000000, 4.000000, 4.000000, 4.000000
0.000000, 0.000000, 4204.102539, 4223.076660, 3648.205078, 3931.281982, 3929.230713, 500.000000, 8141.000000, 8369.000000, 0.000000, 0.000000, 0.000000, 1.000000, 442.099976, 1557645462.164174, 4.000000, 4.000000, 4.000000, 4.000000, 4.000000
1.000000, 0.000000, 4210.769043, 4228.205078, 3640.000000, 3933.845947, 3932.307617, 500.000000, 8142.000000, 8373.000000, 0.000000, 0.000000, 0.000000, 1.000000, 450.099976, 1557645462.172174, 4.000000, 4.000000, 4.000000, 4.000000, 4.000000
2.000000, 0.000000, 4218.461426, 4242.563965, 3629.743408, 3928.205078, 3948.717773, 16187.000000, 8143.000000, 8366.000000, 0.000000, 0.000000, 0.000000, 1.000000, 458.099976, 1557645462.180174, 4.000000, 4.000000, 4.000000, 4.000000, 4.000000
3.000000, 0.000000, 4200.000000, 4234.358887, 3651.281982, 3916.410156, 3942.051270, 500.000000, 8143.000000, 8366.000000, 0.000000, 0.000000, 0.000000, 1.000000, 465.899963, 1557645462.187974, 4.000000, 4.000000, 4.000000, 4.000000, 4.000000
4.000000, 0.000000, 4189.743652, 4228.205078, 3674.358887, 3919.487061, 3941.538330, 16100.000000, 8150.000000, 8370.000000, 0.000000, 0.000000, 0.000000, 1.000000, 473.899963, 1557645462.195974, 4.000000, 4.000000, 4.000000, 4.000000, 4.000000
5.000000, 0.000000, 4260.000000, 4249.230469, 3663.076904, 3948.205078, 3982.051270, 500.000000, 8153.000000, 8366.000000, 0.000000, 0.000000, 0.000000, 1.000000, 481.700012, 1557645462.203774, 4.000000, 4.000000, 4.000000, 4.000000, 4.000000
6.000000, 0.000000, 4358.974121, 4263.076660, 3653.333252, 3953.333252, 4033.845947, 16155.000000, 8149.000000, 8363.000000, 0.000000, 0.000000, 0.000000, 1.000000, 489.500000, 1557645462.211574, 4.000000, 4.000000, 4.000000, 4.000000, 4.000000
7.000000, 0.000000, 4410.769043, 4251.794922, 3666.666504, 3921.538330, 4080.512695, 500.000000, 8149.000000, 8362.000000, 0.000000, 0.000000, 0.000000, 1.000000, 497.200012, 1557645462.219274, 4.000000, 4.000000, 4.000000, 4.000000, 4.000000
8.000000, 0.000000, 4448.717773, 4245.641113, 3682.051270, 3903.076904, 4122.563965, 500.000000, 8151.000000, 8361.000000, 0.000000, 0.000000, 0.000000, 1.000000, 505.200012, 1557645462.227274, 4.000000, 4.000000, 4.000000, 4.000000, 4.000000
9.000000, 0.000000, 4485.127930, 4263.076660, 3685.640869, 3950.256348, 4136.922852, 16082.000000, 8145.000000, 8365.000000, 0.000000, 0.000000, 0.000000, 1.000000, 513.200012, 1557645462.235274, 4.000000, 4.000000, 4.000000, 4.000000, 4.000000
10.000000, 0.000000, 4486.666504, 4275.384277, 3691.794678, 3991.794678, 4124.615234, 500.000000, 8146.000000, 8371.000000, 0.000000, 0.000000, 0.000000, 1.000000, 521.000000, 1557645462.243074, 4.000000, 4.000000, 4.000000, 4.000000, 4.000000
11.000000, 0.000000, 4484.102539, 4262.051270, 3707.692139, 3963.589600, 4124.615234, 16167.000000, 8148.000000, 8365.000000, 0.000000, 0.000000, 0.000000, 1.000000, 528.899963, 1557645462.250974, 4.000000, 4.000000, 4.000000, 4.000000, 4.000000
12.000000, 0.000000, 4495.897461, 4250.256348, 3722.051270, 3952.307617, 4141.538574, 500.000000, 8143.000000, 8361.000000, 0.000000, 0.000000, 0.000000, 1.000000, 536.899963, 1557645462.258974, 4.000000, 4.000000, 4.000000, 4.000000, 4.000000
13.000000, 0.000000, 4503.589844, 4266.666504, 3729.743408, 3994.871582, 4159.487305, 500.000000, 8144.000000, 8374.000000, 0.000000, 0.000000, 0.000000, 1.000000, 544.899963, 1557645462.266974, 4.000000, 4.000000, 4.000000, 4.000000, 4.000000
14.000000, 0.000000, 4494.358887, 4285.127930, 3738.461426, 3996.923096, 4156.922852, 450.000000, 8145.000000, 8371.000000, 0.000000, 0.000000, 0.000000, 1.000000, 552.700012, 1557645462.274774, 4.000000, 4.000000, 4.000000, 4.000000, 4.000000
15.000000, 0.000000, 4461.538574, 4274.358887, 3739.487061, 3962.051270, 4124.102539, 16167.000000, 8146.000000, 8353.000000, 0.000000, 0.000000, 0.000000, 1.000000, 560.500000, 1557645462.282574, 4.000000, 4.000000, 4.000000, 4.000000, 4.000000
16.000000, 0.000000, 4448.717773, 4280.000000, 3734.871582, 3978.461426, 4108.717773, 0.000000, 8143.000000, 8351.000000, 0.000000, 0.000000, 0.000000, 1.000000, 568.200012, 1557645462.290274, 4.000000, 4.000000, 4.000000, 4.000000, 4.000000
17.000000, 0.000000, 4464.615234, 4296.410156, 3737.948730, 3984.102539, 4118.974121, 0.000000, 8146.000000, 8354.000000, 0.000000, 0.000000, 0.000000, 1.000000, 576.000000, 1557645462.298074, 4.000000, 4.000000, 4.000000, 4.000000, 4.000000
18.000000, 0.000000, 4453.846191, 4272.307617, 3737.435791, 3970.769043, 4115.897461, 0.000000, 8143.000000, 8352.000000, 0.000000, 0.000000, 0.000000, 1.000000, 584.000000, 1557645462.306074, 4.000000, 4.000000, 4.000000, 4.000000, 4.000000
19.000000, 0.000000, 4420.000000, 4245.127930, 3729.743408, 3984.102539, 4106.666504, 0.000000, 8142.000000, 8346.000000, 0.000000, 0.000000, 0.000000, 1.000000, 592.000000, 1557645462.314074, 4.000000, 4.000000, 4.000000, 4.000000, 4.000000
20.000000, 0.000000, 4410.769043, 4259.487305, 3739.487061, 3977.948730, 4106.666504, 0.000000, 8142.000000, 8349.000000, 0.000000, 0.000000, 0.000000, 1.000000, 599.899963, 1557645462.321974, 4.000000, 4.000000, 4.000000, 4.000000, 4.000000
21.000000, 0.000000, 4417.435547, 4280.512695, 3761.538330, 3978.461426, 4107.179199, 0.000000, 8148.000000, 8343.000000, 0.000000, 0.000000, 0.000000, 1.000000, 607.899963, 1557645462.329974, 4.000000, 4.000000, 4.000000, 4.000000, 4.000000
22.000000, 0.000000, 4413.846191, 4277.436035, 3761.025635, 3992.820313, 4106.153809, 0.000000, 8148.000000, 8346.000000, 0.000000, 0.000000, 0.000000, 1.000000, 615.899963, 1557645462.337974, 4.000000, 4.000000, 4.000000, 4.000000, 4.000000
23.000000, 0.000000, 4404.102539, 4271.281738, 3754.871582, 3968.717773, 4103.589844, 0.000000, 8139.000000, 8353.000000, 0.000000, 0.000000, 0.000000, 1.000000, 623.700012, 1557645462.345774, 4.000000, 4.000000, 4.000000, 4.000000, 4.000000
24.000000, 0.000000, 4396.922852, 4274.871582, 3769.230713, 3955.897461, 4093.845947, 0.000000, 8146.000000, 8343.000000, 0.000000, 0.000000, 0.000000, 1.000000, 631.399963, 1557645462.353474, 4.000000, 4.000000, 4.000000, 4.000000, 4.000000
25.000000, 0.000000, 4389.230469, 4279.487305, 3775.384521, 3982.563965, 4081.538330, 0.000000, 8143.000000, 8343.000000, 0.000000, 0.000000, 0.000000, 1.000000, 639.200012, 1557645462.361274, 4.000000, 4.000000, 4.000000, 4.000000, 4.000000
26.000000, 0.000000, 4376.922852, 4275.384277, 3760.512695, 3968.717773, 4083.076904, 0.000000, 8139.000000, 8352.000000, 0.000000, 0.000000, 0.000000, 1.000000, 647.099976, 1557645462.369174, 4.000000, 4.000000, 4.000000, 4.000000, 4.000000
27.000000, 0.000000, 4372.307617, 4283.589844, 3767.692139, 3954.871582, 4102.051270, 0.000000, 8143.000000, 8359.000000, 0.000000, 0.000000, 0.000000, 1.000000, 655.099976, 1557645462.377174, 4.000000, 4.000000, 4.000000, 4.000000, 4.000000
28.000000, 0.000000, 4383.589844, 4300.000000, 3791.794678, 4008.205078, 4108.717773, 0.000000, 8147.000000, 8344.000000, 0.000000, 0.000000, 0.000000, 1.000000, 663.000000, 1557645462.385074, 4.000000, 4.000000, 4.000000, 4.000000, 4.000000
29.000000, 0.000000, 4381.025391, 4286.666504, 3783.589600, 4031.794678, 4083.589600, 0.000000, 8147.000000, 8344.000000, 0.000000, 0.000000, 0.000000, 1.000000, 671.000000, 1557645462.393074, 4.000000, 4.000000, 4.000000, 4.000000, 4.000000
30.000000, 0.000000, 4371.281738, 4273.333008, 3764.102539, 3994.358887, 4077.948730, 0.000000, 8143.000000, 8354.000000, 0.000000, 0.000000, 0.000000, 1.000000, 678.799988, 1557645462.400874, 4.000000, 4.000000, 4.000000, 4.000000, 4.000000
31.000000, 0.000000, 4376.922852, 4282.563965, 3760.000000, 3968.717773, 4098.974121, 0.000000, 8147.000000, 8356.000000, 0.000000, 0.000000, 0.000000, 1.000000, 686.599976, 1557645462.408674, 4.000000, 4.000000, 4.000000, 4.000000, 4.000000
32.000000, 0.000000, 4377.948730, 4284.615234, 3756.923096, 3973.845947, 4093.845947, 0.000000, 8149.000000, 8351.000000, 0.000000, 0.000000, 0.000000, 1.000000, 694.299988, 1557645462.416374, 4.000000, 4.000000, 4.000000, 4.000000, 4.000000
33.000000, 0.000000, 4368.205078, 4281.538574, 3773.845947, 4000.000000, 4081.025635, 0.000000, 8142.000000, 8351.000000, 0.000000, 0.000000, 0.000000, 1.000000, 702.099988, 1557645462.424174, 4.000000, 4.000000, 4.000000, 4.000000, 4.000000
34.000000, 0.000000, 4365.641113, 4283.076660, 3796.923096, 4014.358887, 4088.717773, 0.000000, 8145.000000, 8350.000000, 0.000000, 0.000000, 0.000000, 1.000000, 710.099988, 1557645462.432174, 4.000000, 4.000000, 4.000000, 4.000000, 4.000000
35.000000, 0.000000, 4374.871582, 4282.563965, 3783.589600, 4007.179443, 4098.461426, 0.000000, 8144.000000, 8349.000000, 0.000000, 0.000000, 0.000000, 1.000000, 718.099987, 1557645462.440174, 4.000000, 4.000000, 4.000000, 4.000000, 4.000000
36.000000, 0.000000, 4366.153809, 4285.641113, 3767.179443, 4013.845947, 4086.153809, 0.000000, 8137.000000, 8350.000000, 0.000000, 0.000000, 0.000000, 1.000000, 726.099987, 1557645462.448174, 4.000000, 4.000000, 4.000000, 4.000000, 4.000000
37.000000, 0.000000, 4352.307617, 4289.230469, 3785.128174, 4021.538330, 4074.358887, 0.000000, 8141.000000, 8352.000000, 0.000000, 0.000000, 0.000000, 1.000000, 733.999989, 1557645462.456074, 4.000000, 4.000000, 4.000000, 4.000000, 4.000000
38.000000, 0.000000, 4375.897461, 4292.820313, 3810.256348, 4004.102539, 4106.666504, 0.000000, 8141.000000, 8348.000000, 0.000000, 0.000000, 0.000000, 1.000000, 741.999989, 1557645462.464074, 4.000000, 4.000000, 4.000000, 4.000000, 4.000000
39.000000, 0.000000, 4401.025391, 4301.538574, 3816.923096, 4002.563965, 4148.205078, 0.000000, 8138.000000, 8356.000000, 0.000000, 0.000000, 0.000000, 1.000000, 749.999989, 1557645462.472074, 4.000000, 4.000000, 4.000000, 4.000000, 4.000000
40.000000, 0.000000, 4392.307617, 4299.487305, 3814.871582, 4033.333252, 4146.666504, 0.000000, 8139.000000, 8354.000000, 0.000000, 0.000000, 0.000000, 1.000000, 757.799988, 1557645462.479874, 4.000000, 4.000000, 4.000000, 4.000000, 4.000000
41.000000, 0.000000, 4389.743652, 4289.230469, 3819.487061, 4043.076904, 4137.436035, 0.000000, 8144.000000, 8340.000000, 0.000000, 0.000000, 0.000000, 1.000000, 765.499985, 1557645462.487574, 4.000000, 4.000000, 4.000000, 4.000000, 4.000000
42.000000, 0.000000, 4399.487305, 4292.307617, 3820.000000, 4019.487061, 4152.820313, 0.000000, 8139.000000, 8344.000000, 0.000000, 0.000000, 0.000000, 1.000000, 773.299988, 1557645462.495374, 4.000000, 4.000000, 4.000000, 4.000000, 4.000000
43.000000, 0.000000, 4393.846191, 4302.051270, 3805.128174, 4013.845947, 4150.769043, 0.000000, 8139.000000, 8357.000000, 0.000000, 0.000000, 0.000000, 1.000000, 781.099991, 1557645462.503174, 4.000000, 4.000000, 4.000000, 4.000000, 4.000000
44.000000, 0.000000, 4390.256348, 4290.256348, 3799.487061, 4031.281982, 4132.820313, 0.000000, 8145.000000, 8348.000000, 0.000000, 0.000000, 0.000000, 1.000000, 789.099991, 1557645462.511174, 4.000000, 4.000000, 4.000000, 4.000000, 4.000000
45.000000, 0.000000, 4377.435547, 4266.666504, 3812.820313, 4017.948730, 4127.179199, 0.000000, 8145.000000, 8345.000000, 0.000000, 0.000000, 0.000000, 1.000000, 796.999985, 1557645462.519074, 4.000000, 4.000000, 4.000000, 4.000000, 4.000000
46.000000, 0.000000, 4357.435547, 4272.307617, 3825.128174, 4001.538330, 4124.615234, 0.000000, 8141.000000, 8351.000000, 0.000000, 0.000000, 0.000000, 1.000000, 804.999985, 1557645462.527074, 4.000000, 4.000000, 4.000000, 4.000000, 4.000000
47.000000, 0.000000, 4377.948730, 4303.589844, 3838.461426, 4036.923096, 4135.897461, 0.000000, 8144.000000, 8346.000000, 0.000000, 0.000000, 0.000000, 1.000000, 812.799988, 1557645462.534874, 4.000000, 4.000000, 4.000000, 4.000000, 4.000000
48.000000, 0.000000, 4387.692383, 4302.051270, 3833.333252, 4062.563965, 4134.871582, 0.000000, 8147.000000, 8347.000000, 0.000000, 0.000000, 0.000000, 1.000000, 820.599991, 1557645462.542674, 4.000000, 4.000000, 4.000000, 4.000000, 4.000000
49.000000, 0.000000, 4352.307617, 4277.436035, 3817.435791, 4033.845947, 4118.974121, 0.000000, 8149.000000, 8353.000000, 0.000000, 0.000000, 0.000000, 1.000000, 828.299988, 1557645462.550374, 4.000000, 4.000000, 4.000000, 4.000000, 4.000000
50.000000, 0.000000, 4355.897461, 4277.436035, 3832.820313, 4013.333252, 4141.025391, 0.000000, 8147.000000, 8352.000000, 0.000000, 0.000000, 0.000000, 1.000000, 836.099991, 1557645462.558174, 4.000000, 4.000000, 4.000000, 4.000000, 4.000000
51.000000, 0.000000, 4386.666504, 4282.051270, 3846.666504, 4034.358887, 4163.589844, 0.000000, 8147.000000, 8341.000000, 0.000000, 0.000000, 0.000000, 1.000000, 844.099991, 1557645462.566174, 4.000000, 4.000000, 4.000000, 4.000000, 4.000000
52.000000, 0.000000, 4359.487305, 4277.436035, 3827.692139, 4036.923096, 4122.051270, 0.000000, 8151.000000, 8341.000000, 0.000000, 0.000000, 0.000000, 1.000000, 852.099991, 1557645462.574174, 4.000000, 4.000000, 4.000000, 4.000000, 4.000000
53.000000, 0.000000, 4328.205078, 4281.538574, 3829.230713, 4014.871582, 4092.820313, 0.000000, 8141.000000, 8350.000000, 0.000000, 0.000000, 0.000000, 1.000000, 859.999985, 1557645462.582074, 4.000000, 4.000000, 4.000000, 4.000000, 4.000000
54.000000, 0.000000, 4372.307617, 4302.563965, 3852.307617, 4034.871582, 4147.692383, 0.000000, 8147.000000, 8341.000000, 0.000000, 0.000000, 0.000000, 1.000000, 867.899994, 1557645462.589974, 4.000000, 4.000000, 4.000000, 4.000000, 4.000000
55.000000, 0.000000, 4415.384277, 4307.179199, 3857.435791, 4083.076904, 4185.641113, 0.000000, 8148.000000, 8348.000000, 0.000000, 0.000000, 0.000000, 1.000000, 875.899994, 1557645462.597974, 4.000000, 4.000000, 4.000000, 4.000000, 4.000000
56.000000, 0.000000, 4383.589844, 4286.666504, 3865.640869, 4070.256348, 4150.769043, 0.000000, 8148.000000, 8356.000000, 0.000000, 0.000000, 0.000000, 1.000000, 883.699982, 1557645462.605774, 4.000000, 4.000000, 4.000000, 4.000000, 4.000000
57.000000, 0.000000, 4345.127930, 4286.153809, 3864.615234, 4017.435791, 4114.358887, 0.000000, 8146.000000, 8351.000000, 0.000000, 0.000000, 0.000000, 1.000000, 891.499985, 1557645462.613574, 4.000000, 4.000000, 4.000000, 4.000000, 4.000000
58.000000, 0.000000, 4365.641113, 4300.000000, 3834.358887, 4006.153809, 4127.179199, 0.000000, 8149.000000, 8348.000000, 0.000000, 0.000000, 0.000000, 1.000000, 899.199982, 1557645462.621274, 4.000000, 4.000000, 4.000000, 4.000000, 4.000000
59.000000, 0.000000, 4391.281738, 4294.358887, 3825.128174, 4025.640869, 4151.794922, 0.000000, 8150.000000, 8354.000000, 0.000000, 0.000000, 0.000000, 1.000000, 906.999985, 1557645462.629074, 4.000000, 4.000000, 4.000000, 4.000000, 4.000000
60.000000, 0.000000, 4367.179199, 4286.666504, 3852.307617, 4051.281982, 4144.102539, 0.000000, 8150.000000, 8352.000000, 0.000000, 0.000000, 0.000000, 1.000000, 914.999985, 1557645462.637074, 4.000000, 4.000000, 4.000000, 4.000000, 4.000000
61.000000, 0.000000, 4350.256348, 4298.974121, 3853.845947, 4045.640869, 4129.743652, 0.000000, 8148.000000, 8349.000000, 0.000000, 0.000000, 0.000000, 1.000000, 922.999985, 1557645462.645074, 4.000000, 4.000000, 4.000000, 4.000000, 4.000000
62.000000, 0.000000, 4380.512695, 4300.512695, 3830.256348, 4017.435791, 4137.436035, 0.000000, 8142.000000, 8361.000000, 0.000000, 0.000000, 0.000000, 1.000000, 930.899994, 1557645462.652974, 4.000000, 4.000000, 4.000000, 4.000000, 4.000000
63.000000, 0.000000, 4394.871582, 4292.307617, 3834.871582, 4028.205078, 4141.538574, 0.000000, 8149.000000, 8360.000000, 0.000000, 0.000000, 0.000000, 1.000000, 938.899994, 1557645462.660974, 4.000000, 4.000000, 4.000000, 4.000000, 4.000000
64.000000, 0.000000, 4377.435547, 4301.538574, 3851.794678, 4049.743408, 4136.410156, 500.000000, 8147.000000, 8356.000000, 0.000000, 0.000000, 0.000000, 1.000000, 946.699982, 1557645462.668774, 4.000000, 4.000000, 4.000000, 4.000000, 4.000000
65.000000, 0.000000, 4381.538574, 4314.871582, 3850.256348, 4041.538330, 4156.922852, 500.000000, 8144.000000, 8353.000000, 0.000000, 0.000000, 0.000000, 1.000000, 954.500000, 1557645462.676574, 4.000000, 4.000000, 4.000000, 4.000000, 4.000000
66.000000, 0.000000, 4389.743652, 4315.897461, 3844.102539, 4027.179443, 4173.846191, 16192.000000, 8140.000000, 8356.000000, 0.000000, 0.000000, 0.000000, 1.000000, 962.199982, 1557645462.684274, 4.000000, 4.000000, 4.000000, 4.000000, 4.000000
67.000000, 0.000000, 4362.563965, 4295.384277, 3845.128174, 4021.538330, 4149.743652, 500.000000, 8138.000000, 8354.000000, 0.000000, 0.000000, 0.000000, 1.000000, 970.000000, 1557645462.692074, 4.000000, 4.000000, 4.000000, 4.000000, 4.000000
68.000000, 0.000000, 4357.435547, 4282.563965, 3854.871582, 4031.281982, 4153.846191, 16108.000000, 8133.000000, 8345.000000, 0.000000, 0.000000, 0.000000, 1.000000, 978.000000, 1557645462.700074, 4.000000, 4.000000, 4.000000, 4.000000, 4.000000
69.000000, 0.000000, 4399.487305, 4307.179199, 3875.384521, 4069.743408, 4208.205078, 500.000000, 8133.000000, 8357.000000, 0.000000, 0.000000, 0.000000, 1.000000, 986.000000, 1557645462.708074, 4.000000, 4.000000, 4.000000, 4.000000, 4.000000
70.000000, 0.000000, 4410.769043, 4320.512695, 3894.358887, 4091.281982, 4225.641113, 16159.000000, 8130.000000, 8350.000000, 0.000000, 0.000000, 0.000000, 1.000000, 994.000000, 1557645462.716074, 4.000000, 4.000000, 4.000000, 4.000000, 4.000000
71.000000, 0.000000, 4374.871582, 4300.512695, 3886.153809, 4069.230713, 4176.410156, 500.000000, 8135.000000, 8343.000000, 0.000000, 0.000000, 0.000000, 2.000000, 1.899994, 1557645462.723974, 4.000000, 4.000000, 4.000000, 4.000000, 4.000000
72.000000, 0.000000, 4352.307617, 4303.076660, 3860.512695, 4031.794678, 4137.436035, 500.000000, 8138.000000, 8336.000000, 0.000000, 0.000000, 0.000000, 2.000000, 9.899994, 1557645462.731974, 4.000000, 4.000000, 4.000000, 4.000000, 4.000000
73.000000, 0.000000, 4355.384277, 4309.230469, 3848.205078, 4009.743408, 4153.846191, 16106.000000, 8136.000000, 8342.000000, 0.000000, 0.000000, 0.000000, 2.000000, 17.699982, 1557645462.739774, 4.000000, 4.000000, 4.000000, 4.000000, 4.000000
74.000000, 0.000000, 4355.384277, 4280.000000, 3854.358887, 4025.640869, 4183.076660, 500.000000, 8140.000000, 8344.000000, 0.000000, 0.000000, 0.000000, 2.000000, 25.500000, 1557645462.747574, 4.000000, 4.000000, 4.000000, 4.000000, 4.000000
75.000000, 0.000000, 4364.102539, 4280.000000, 3857.435791, 4059.487061, 4198.461426, 16162.000000, 8145.000000, 8345.000000, 0.000000, 0.000000, 0.000000, 2.000000, 33.199982, 1557645462.755274, 4.000000, 4.000000, 4.000000, 4.000000, 4.000000
76.000000, 0.000000, 4385.127930, 4323.076660, 3861.538330, 4093.333252, 4222.051270, 500.000000, 8140.000000, 8342.000000, 0.000000, 0.000000, 0.000000, 2.000000, 41.000000, 1557645462.763074, 4.000000, 4.000000, 4.000000, 4.000000, 4.000000
77.000000, 0.000000, 4355.897461, 4321.538574, 3868.205078, 4096.922852, 4217.948730, 500.000000, 8141.000000, 8339.000000, 0.000000, 0.000000, 0.000000, 2.000000, 49.000000, 1557645462.771074, 4.000000, 4.000000, 4.000000, 4.000000, 4.000000
78.000000, 0.000000, 4301.538574, 4284.102539, 3846.666504, 4053.845947, 4163.589844, 450.000000, 8144.000000, 8344.000000, 0.000000, 0.000000, 0.000000, 2.000000, 57.000000, 1557645462.779074, 4.000000, 4.000000, 4.000000, 4.000000, 4.000000
79.000000, 0.000000, 4317.948730, 4277.436035, 3822.563965, 4020.512695, 4144.102539, 16162.000000, 8142.000000, 8353.000000, 0.000000, 0.000000, 0.000000, 2.000000, 64.899994, 1557645462.786974, 4.000000, 4.000000, 4.000000, 4.000000, 4.000000
80.000000, 0.000000, 4360.512695, 4290.256348, 3840.000000, 4042.563965, 4187.179199, 450.000000, 8147.000000, 8350.000000, 0.000000, 0.000000, 0.000000, 2.000000, 72.899994, 1557645462.794974, 4.000000, 4.000000, 4.000000, 4.000000, 4.000000
81.000000, 0.000000, 4349.743652, 4306.153809, 3853.845947, 4059.487061, 4189.230469, 450.000000, 8147.000000, 8340.000000, 0.000000, 0.000000, 0.000000, 2.000000, 80.699982, 1557645462.802774, 4.000000, 4.000000, 4.000000, 4.000000, 4.000000
82.000000, 0.000000, 4336.922852, 4309.743652, 3840.512695, 4018.974365, 4148.205078, 450.000000, 8146.000000, 8349.000000, 0.000000, 0.000000, 0.000000, 2.000000, 88.500000, 1557645462.810574, 4.000000, 4.000000, 4.000000, 4.000000, 4.000000
83.000000, 0.000000, 4360.000000, 4313.333008, 3840.000000, 4009.743408, 4145.641113, 16162.000000, 8144.000000, 8362.000000, 0.000000, 0.000000, 0.000000, 2.000000, 96.199982, 1557645462.818274, 4.000000, 4.000000, 4.000000, 4.000000, 4.000000
84.000000, 0.000000, 4363.076660, 4324.102539, 3846.666504, 4054.358887, 4160.000000, 450.000000, 8146.000000, 8352.000000, 0.000000, 0.000000, 0.000000, 2.000000, 104.000000, 1557645462.826074, 4.000000, 4.000000, 4.000000, 4.000000, 4.000000
85.000000, 0.000000, 4345.641113, 4318.974121, 3835.897461, 4064.615234, 4155.897461, 450.000000, 8152.000000, 8349.000000, 0.000000, 0.000000, 0.000000, 2.000000, 112.000000, 1557645462.834074, 4.000000, 4.000000, 4.000000, 4.000000, 4.000000
86.000000, 0.000000, 4342.051270, 4310.256348, 3826.666504, 4044.102539, 4145.127930, 450.000000, 8150.000000, 8354.000000, 0.000000, 0.000000, 0.000000, 2.000000, 120.000000, 1557645462.842074, 4.000000, 4.000000, 4.000000, 4.000000, 4.000000
87.000000, 0.000000, 4345.641113, 4319.487305, 3836.923096, 4056.923096, 4138.974121, 16162.000000, 8151.000000, 8360.000000, 0.000000, 0.000000, 0.000000, 2.000000, 128.000000, 1557645462.850074, 4.000000, 4.000000, 4.000000, 4.000000, 4.000000
88.000000, 0.000000, 4350.256348, 4330.256348, 3852.307617, 4062.051270, 4144.615234, 450.000000, 8149.000000, 8360.000000, 0.000000, 0.000000, 0.000000, 2.000000, 135.899994, 1557645462.857974, 4.000000, 4.000000, 4.000000, 4.000000, 4.000000
89.000000, 0.000000, 4357.435547, 4326.153809, 3855.384521, 4035.384521, 4154.871582, 450.000000, 8147.000000, 8355.000000, 0.000000, 0.000000, 0.000000, 2.000000, 143.699982, 1557645462.865774, 4.000000, 4.000000, 4.000000, 4.000000, 4.000000
90.000000, 0.000000, 4356.410156, 4320.512695, 3848.205078, 4050.769043, 4159.487305, 450.000000, 8144.000000, 8352.000000, 0.000000, 0.000000, 0.000000, 2.000000, 151.500000, 1557645462.873574, 4.000000, 4.000000, 4.000000, 4.000000, 4.000000
91.000000, 0.000000, 4341.025391, 4306.153809, 3847.692139, 4072.820313, 4158.461426, 16162.000000, 8148.000000, 8353.000000, 0.000000, 0.000000, 0.000000, 2.000000, 159.299988, 1557645462.881374, 4.000000, 4.000000, 4.000000, 4.000000, 4.000000
92.000000, 0.000000, 4327.179199, 4296.922852, 3848.717773, 4045.640869, 4142.563965, 450.000000, 8146.000000, 8355.000000, 0.000000, 0.000000, 0.000000, 2.000000, 167.000000, 1557645462.889074, 4.000000, 4.000000, 4.000000, 4.000000, 4.000000
93.000000, 0.000000, 4314.358887, 4306.666504, 3838.461426, 4034.871582, 4116.922852, 450.000000, 8152.000000, 8349.000000, 0.000000, 0.000000, 0.000000, 2.000000, 175.000000, 1557645462.897074, 4.000000, 4.000000, 4.000000, 4.000000, 4.000000
94.000000, 0.000000, 4304.102539, 4300.000000, 3833.845947, 4060.512695, 4117.436035, 450.000000, 8156.000000, 8341.000000, 0.000000, 0.000000, 0.000000, 2.000000, 183.000000, 1557645462.905074, 4.000000, 4.000000, 4.000000, 4.000000, 4.000000
95.000000, 0.000000, 4320.512695, 4302.051270, 3838.974365, 4063.589600, 4140.000000, 16162.000000, 8150.000000, 8354.000000, 0.000000, 0.000000, 0.000000, 2.000000, 191.000000, 1557645462.913074, 4.000000, 4.000000, 4.000000, 4.000000, 4.000000
96.000000, 0.000000, 4344.615234, 4328.717773, 3841.538330, 4032.820313, 4145.641113, 450.000000, 8145.000000, 8358.000000, 0.000000, 0.000000, 0.000000, 2.000000, 198.899994, 1557645462.920974, 4.000000, 4.000000, 4.000000, 4.000000, 4.000000
97.000000, 0.000000, 4342.051270, 4321.025391, 3848.717773, 4023.589600, 4135.384277, 450.000000, 8149.000000, 8358.000000, 0.000000, 0.000000, 0.000000, 2.000000, 206.699982, 1557645462.928774, 4.000000, 4.000000, 4.000000, 4.000000, 4.000000
98.000000, 0.000000, 4334.358887, 4290.769043, 3844.102539, 4041.538330, 4132.820313, 450.000000, 8140.000000, 8348.000000, 0.000000, 0.000000, 0.000000, 2.000000, 214.500000, 1557645462.936574, 4.000000, 4.000000, 4.000000, 4.000000, 4.000000
99.000000, 0.000000, 4335.384277, 4300.512695, 3816.923096, 4048.717773, 4140.000000, 16162.000000, 8148.000000, 8365.000000, 0.000000, 0.000000, 0.000000, 2.000000, 222.299988, 1557645462.944374, 4.000000, 4.000000, 4.000000, 4.000000, 4.000000
100.000000, 0.000000, 4328.717773, 4314.358887, 3814.358887, 4048.205078, 4138.461426, 450.000000, 8145.000000, 8367.000000, 0.000000, 0.000000, 0.000000, 2.000000, 230.000000, 1557645462.952074, 4.000000, 4.000000, 4.000000, 4.000000, 4.000000
101.000000, 0.000000, 4332.307617, 4295.384277, 3842.051270, 4061.538330, 4136.922852, 450.000000, 8147.000000, 8366.000000, 0.000000, 0.000000, 0.000000, 2.000000, 238.000000, 1557645462.960074, 4.000000, 4.000000, 4.000000, 4.000000, 4.000000
102.000000, 0.000000, 4367.179199, 4301.538574, 3866.666504, 4071.794678, 4154.358887, 450.000000, 8141.000000, 8370.000000, 0.000000, 0.000000, 0.000000, 2.000000, 246.000000, 1557645462.968074, 4.000000, 4.000000, 4.000000, 4.000000, 4.000000
103.000000, 0.000000, 4391.281738, 4340.512695, 3884.615234, 4069.230713, 4175.384277, 16162.000000, 8148.000000, 8371.000000, 0.000000, 0.000000, 0.000000, 2.000000, 254.000000, 1557645462.976074, 4.000000, 4.000000, 4.000000, 4.000000, 4.000000
104.000000, 0.000000, 4362.563965, 4341.538574, 3890.769043, 4054.871582, 4172.307617, 450.000000, 8148.000000, 8365.000000, 0.000000, 0.000000, 0.000000, 2.000000, 261.899963, 1557645462.983974, 4.000000, 4.000000, 4.000000, 4.000000, 4.000000
105.000000, 0.000000, 4335.897461, 4306.153809, 3871.281982, 4039.487061, 4151.281738, 450.000000, 8150.000000, 8369.000000, 0.000000, 0.000000, 0.000000, 2.000000, 269.899963, 1557645462.991974, 4.000000, 4.000000, 4.000000, 4.000000, 4.000000
106.000000, 0.000000, 4350.769043, 4293.846191, 3850.256348, 4046.153809, 4141.538574, 450.000000, 8146.000000, 8379.000000, 0.000000, 0.000000, 0.000000, 2.000000, 277.700012, 1557645462.999774, 4.000000, 4.000000, 4.000000, 4.000000, 4.000000
107.000000, 0.000000, 4356.922852, 4306.153809, 3850.769043, 4063.589600, 4146.153809, 16162.000000, 8151.000000, 8363.000000, 0.000000, 0.000000, 0.000000, 2.000000, 285.500000, 1557645463.007574, 4.000000, 4.000000, 4.000000, 4.000000, 4.000000
108.000000, 0.000000, 4340.512695, 4305.641113, 3865.128174, 4065.128174, 4151.281738, 450.000000, 8148.000000, 8356.000000, 0.000000, 0.000000, 0.000000, 2.000000, 293.299988, 1557645463.015374, 4.000000, 4.000000, 4.000000, 4.000000, 4.000000
109.000000, 0.000000, 4355.897461, 4312.307617, 3883.589600, 4067.179443, 4162.051270, 450.000000, 8145.000000, 8367.000000, 0.000000, 0.000000, 0.000000, 2.000000, 301.200012, 1557645463.023274, 4.000000, 4.000000, 4.000000, 4.000000, 4.000000
110.000000, 0.000000, 4390.769043, 4344.102539, 3890.769043, 4083.076904, 4174.871582, 450.000000, 8147.000000, 8369.000000, 0.000000, 0.000000, 0.000000, 2.000000, 309.099976, 1557645463.031174, 4.000000, 4.000000, 4.000000, 4.000000, 4.000000
111.000000, 0.000000, 4384.615234, 4331.794922, 3881.538330, 4080.512695, 4168.205078, 16162.000000, 8151.000000, 8359.000000, 0.000000, 0.000000, 0.000000, 2.000000, 317.099976, 1557645463.039174, 4.000000, 4.000000, 4.000000, 4.000000, 4.000000
112.000000, 0.000000, 4355.897461, 4287.179199, 3871.794678, 4064.615234, 4155.384277, 450.000000, 8151.000000, 8354.000000, 0.000000, 0.000000, 0.000000, 2.000000, 325.099976, 1557645463.047174, 4.000000, 4.000000, 4.000000, 4.000000, 4.000000
113.000000, 0.000000, 4357.435547, 4304.615234, 3874.358887, 4049.743408, 4159.487305, 450.000000, 8148.000000, 8358.000000, 0.000000, 0.000000, 0.000000, 2.000000, 333.000000, 1557645463.055074, 4.000000, 4.000000, 4.000000, 4.000000, 4.000000
114.000000, 0.000000, 4370.769043, 4344.615234, 3888.205078, 4040.000000, 4156.922852, 450.000000, 8151.000000, 8349.000000, 0.000000, 0.000000, 0.000000, 2.000000, 340.799988, 1557645463.062874, 4.000000, 4.000000, 4.000000, 4.000000, 4.000000
115.000000, 0.000000, 4360.512695, 4316.410156, 3881.025635, 4073.845947, 4148.205078, 16162.000000, 8148.000000, 8348.000000, 0.000000, 0.000000, 0.000000, 2.000000, 348.599976, 1557645463.070674, 4.000000, 4.000000, 4.000000, 4.000000, 4.000000
116.000000, 0.000000, 4352.820313, 4282.563965, 3859.487061, 4100.000000, 4155.897461, 450.000000, 8152.000000, 8344.000000, 0.000000, 0.000000, 0.000000, 2.000000, 356.399963, 1557645463.078474, 4.000000, 4.000000, 4.000000, 4.000000, 4.000000
117.000000, 0.000000, 4355.897461, 4308.205078, 3867.692139, 4057.948730, 4153.333008, 450.000000, 8151.000000, 8335.000000, 0.000000, 0.000000, 0.000000, 2.000000, 364.099976, 1557645463.086174, 4.000000, 4.000000, 4.000000, 4.000000, 4.000000
118.000000, 0.000000, 4346.153809, 4323.589844, 3879.487061, 4021.025635, 4135.384277, 450.000000, 8144.000000, 8342.000000, 0.000000, 0.000000, 0.000000, 2.000000, 372.099976, 1557645463.094174, 4.000000, 4.000000, 4.000000, 4.000000, 4.000000
119.000000, 0.000000, 4341.538574, 4306.153809, 3867.692139, 4046.666504, 4130.256348, 16162.000000, 8143.000000, 8345.000000, 0.000000, 0.000000, 0.000000, 2.000000, 380.099976, 1557645463.102174, 4.000000, 4.000000, 4.000000, 4.000000, 4.000000
120.000000, 0.000000, 4350.769043, 4306.153809, 3877.435791, 4075.897217, 4136.410156, 450.000000, 8146.000000, 8345.000000, 0.000000, 0.000000, 0.000000, 2.000000, 388.099976, 1557645463.110174, 4.000000, 4.000000, 4.000000, 4.000000, 4.000000
121.000000, 0.000000, 4351.281738, 4316.410156, 3901.025635, 4071.281982, 4143.589844, 450.000000, 8145.000000, 8335.000000, 0.000000, 0.000000, 0.000000, 2.000000, 396.000000, 1557645463.118074, 4.000000, 4.000000, 4.000000, 4.000000, 4.000000
122.000000, 0.000000, 4364.102539, 4311.794922, 3897.435791, 4083.589600, 4160.000000, 450.000000, 8141.000000, 8343.000000, 0.000000, 0.000000, 0.000000, 2.000000, 404.000000, 1557645463.126074, 4.000000, 4.000000, 4.000000, 4.000000, 4.000000
123.000000, 0.000000, 4400.512695, 4312.307617, 3904.102539, 4123.076660, 4180.000000, 16162.000000, 8137.000000, 8344.000000, 0.000000, 0.000000, 0.000000, 2.000000, 411.799988, 1557645463.133874, 4.000000, 4.000000, 4.000000, 4.000000, 4.000000
124.000000, 0.000000, 4410.769043, 4331.794922, 3930.256348, 4124.102539, 4191.794922, 450.000000, 8142.000000, 8335.000000, 0.000000, 0.000000, 0.000000, 2.000000, 419.599976, 1557645463.141674, 4.000000, 4.000000, 4.000000, 4.000000, 4.000000
125.000000, 0.000000, 4380.512695, 4337.436035, 3923.589600, 4089.230713, 4185.641113, 450.000000, 8139.000000, 8342.000000, 0.000000, 0.000000, 0.000000, 2.000000, 427.399963, 1557645463.149474, 4.000000, 4.000000, 4.000000, 4.000000, 4.000000
126.000000, 0.000000, 4352.307617, 4308.205078, 3890.256348, 4069.230713, 4161.538574, 450.000000, 8142.000000, 8349.000000, 0.000000, 0.000000, 0.000000, 2.000000, 435.099976, 1557645463.157174, 4.000000, 4.000000, 4.000000, 4.000000, 4.000000
127.000000, 0.000000, 4353.333008, 4286.153809, 3871.281982, 4071.794678, 4145.641113, 16162.000000, 8138.000000, 8354.000000, 0.000000, 0.000000, 0.000000, 2.000000, 443.099976, 1557645463.165174, 4.000000, 4.000000, 4.000000, 4.000000, 4.000000
128.000000, 0.000000, 4372.820313, 4300.512695, 3884.615234, 4076.410156, 4154.358887, 500.000000, 8137.000000, 8350.000000, 0.000000, 0.000000, 0.000000, 2.000000, 451.000000, 1557645463.173074, 4.000000, 4.000000, 4.000000, 4.000000, 4.000000
0.000000, 0.000000, 4384.102539, 4320.512695, 3900.000000, 4072.820313, 4165.641113, 500.000000, 8139.000000, 8349.000000, 0.000000, 0.000000, 0.000000, 2.000000, 459.000000, 1557645463.181074, 4.000000, 4.000000, 4.000000, 4.000000, 4.000000
1.000000, 0.000000, 4392.307617, 4335.384277, 3890.256348, 4080.512695, 4175.384277, 500.000000, 8140.000000, 8349.000000, 0.000000, 0.000000, 0.000000, 2.000000, 466.899963, 1557645463.188974, 4.000000, 4.000000, 4.000000, 4.000000, 4.000000
2.000000, 0.000000, 4412.820313, 4342.563965, 3898.461426, 4117.948730, 4193.333008, 16192.000000, 8137.000000, 8351.000000, 0.000000, 0.000000, 0.000000, 2.000000, 474.700012, 1557645463.196774, 4.000000, 4.000000, 4.000000, 4.000000, 4.000000
3.000000, 0.000000, 4411.281738, 4329.743652, 3928.205078, 4137.948730, 4197.948730, 500.000000, 8146.000000, 8356.000000, 0.000000, 0.000000, 0.000000, 2.000000, 482.500000, 1557645463.204574, 4.000000, 4.000000, 4.000000, 4.000000, 4.000000
4.000000, 0.000000, 4376.410156, 4304.102539, 3916.923096, 4103.589844, 4170.256348, 16100.000000, 8142.000000, 8354.000000, 0.000000, 0.000000, 0.000000, 2.000000, 490.299988, 1557645463.212374, 4.000000, 4.000000, 4.000000, 4.000000, 4.000000
5.000000, 0.000000, 4358.974121, 4292.820313, 3894.871582, 4074.358887, 4152.820313, 500.000000, 8150.000000, 8354.000000, 0.000000, 0.000000, 0.000000, 2.000000, 498.099976, 1557645463.220174, 4.000000, 4.000000, 4.000000, 4.000000, 4.000000
6.000000, 0.000000, 4373.333008, 4304.102539, 3901.025635, 4068.717773, 4160.000000, 16146.000000, 8147.000000, 8361.000000, 0.000000, 0.000000, 0.000000, 2.000000, 506.099976, 1557645463.228174, 4.000000, 4.000000, 4.000000, 4.000000, 4.000000
7.000000, 0.000000, 4387.179199, 4316.922852, 3908.717773, 4071.794678, 4168.717773, 500.000000, 8147.000000, 8366.000000, 0.000000, 0.000000, 0.000000, 2.000000, 514.099976, 1557645463.236174, 4.000000, 4.000000, 4.000000, 4.000000, 4.000000
8.000000, 0.000000, 4391.794922, 4320.000000, 3925.128174, 4082.563965, 4179.487305, 500.000000, 8156.000000, 8354.000000, 0.000000, 0.000000, 0.000000, 2.000000, 522.099976, 1557645463.244174, 4.000000, 4.000000, 4.000000, 4.000000, 4.000000
9.000000, 0.000000, 4386.666504, 4322.051270, 3947.692139, 4075.897217, 4182.563965, 16095.000000, 8153.000000, 8351.000000, 0.000000, 0.000000, 0.000000, 2.000000, 530.000000, 1557645463.252074, 4.000000, 4.000000, 4.000000, 4.000000, 4.000000
10.000000, 0.000000, 4387.179199, 4329.743652, 3943.589600, 4096.922852, 4172.307617, 500.000000, 8148.000000, 8364.000000, 0.000000, 0.000000, 0.000000, 2.000000, 537.799988, 1557645463.259874, 4.000000, 4.000000, 4.000000, 4.000000, 4.000000
11.000000, 0.000000, 4389.743652, 4321.025391, 3935.897461, 4145.641113, 4169.230469, 16162.000000, 8149.000000, 8358.000000, 0.000000, 0.000000, 0.000000, 2.000000, 545.599976, 1557645463.267674, 4.000000, 4.000000, 4.000000, 4.000000, 4.000000
12.000000, 0.000000, 4372.307617, 4307.179199, 3933.845947, 4118.974121, 4170.256348, 500.000000, 8149.000000, 8352.000000, 0.000000, 0.000000, 0.000000, 2.000000, 553.399963, 1557645463.275474, 4.000000, 4.000000, 4.000000, 4.000000, 4.000000
13.000000, 0.000000, 4360.000000, 4314.871582, 3921.538330, 4050.256348, 4168.205078, 500.000000, 8149.000000, 8355.000000, 0.000000, 0.000000, 0.000000, 2.000000, 561.200012, 1557645463.283274, 4.000000, 4.000000, 4.000000, 4.000000, 4.000000
14.000000, 0.000000, 4365.641113, 4315.384277, 3929.230713, 4068.717773, 4173.846191, 450.000000, 8149.000000, 8351.000000, 0.000000, 0.000000, 0.000000, 2.000000, 569.000000, 1557645463.291074, 4.000000, 4.000000, 4.000000, 4.000000, 4.000000
15.000000, 0.000000, 4369.230469, 4311.281738, 3946.666504, 4114.871582, 4170.769043, 16162.000000, 8144.000000, 8352.000000, 0.000000, 0.000000, 0.000000, 2.000000, 577.000000, 1557645463.299074, 4.000000, 4.000000, 4.000000, 4.000000, 4.000000
16.000000, 0.000000, 4372.820313, 4325.641113, 3945.640869, 4091.281982, 4165.641113, 0.000000, 8145.000000, 8354.000000, 0.000000, 0.000000, 0.000000, 2.000000, 585.000000, 1557645463.307074, 4.000000, 4.000000, 4.000000, 4.000000, 4.000000
17.000000, 0.000000, 4382.563965, 4321.025391, 3950.769043, 4080.000000, 4180.512695, 0.000000, 8146.000000, 8346.000000, 0.000000, 0.000000, 0.000000, 2.000000, 593.000000, 1557645463.315074, 4.000000, 4.000000, 4.000000, 4.000000, 4.000000
18.000000, 0.000000, 4381.025391, 4305.641113, 3964.615234, 4113.333008, 4182.051270, 0.000000, 8147.000000, 8343.000000, 0.000000, 0.000000, 0.000000, 2.000000, 600.899963, 1557645463.322974, 4.000000, 4.000000, 4.000000, 4.000000, 4.000000
19.000000, 0.000000, 4384.102539, 4339.487305, 3964.102539, 4120.000000, 4174.358887, 0.000000, 8140.000000, 8353.000000, 0.000000, 0.000000, 0.000000, 2.000000, 608.700012, 1557645463.330774, 4.000000, 4.000000, 4.000000, 4.000000, 4.000000
20.000000, 0.000000, 4396.922852, 4352.307617, 3945.640869, 4109.230469, 4176.922852, 0.000000, 8141.000000, 8353.000000, 0.000000, 0.000000, 0.000000, 2.000000, 616.500000, 1557645463.338574, 4.000000, 4.000000, 4.000000, 4.000000, 4.000000
21.000000, 0.000000, 4382.051270, 4308.205078, 3935.384521, 4123.076660, 4169.230469, 0.000000, 8142.000000, 8344.000000, 0.000000, 0.000000, 0.000000, 2.000000, 624.299988, 1557645463.346374, 4.000000, 4.000000, 4.000000, 4.000000, 4.000000
22.000000, 0.000000, 4370.769043, 4309.743652, 3964.615234, 4125.127930, 4177.948730, 0.000000, 8141.000000, 8347.000000, 0.000000, 0.000000, 0.000000, 2.000000, 632.000000, 1557645463.354074, 4.000000, 4.000000, 4.000000, 4.000000, 4.000000
23.000000, 0.000000, 4388.205078, 4338.974121, 3993.845947, 4101.538574, 4204.102539, 0.000000, 8137.000000, 8361.000000, 0.000000, 0.000000, 0.000000, 2.000000, 640.000000, 1557645463.362074, 4.000000, 4.000000, 4.000000, 4.000000, 4.000000
24.000000, 0.000000, 4389.743652, 4331.794922, 3970.256348, 4100.000000, 4189.743652, 0.000000, 8141.000000, 8365.000000, 0.000000, 0.000000, 0.000000, 2.000000, 648.000000, 1557645463.370074, 4.000000, 4.000000, 4.000000, 4.000000, 4.000000
25.000000, 0.000000, 4370.256348, 4329.743652, 3935.897461, 4108.717773, 4162.563965, 0.000000, 8144.000000, 8361.000000, 0.000000, 0.000000, 0.000000, 2.000000, 656.000000, 1557645463.378074, 4.000000, 4.000000, 4.000000, 4.000000, 4.000000
26.000000, 0.000000, 4366.666504, 4333.846191, 3935.384521, 4088.717773, 4165.127930, 0.000000, 8140.000000, 8357.000000, 0.000000, 0.000000, 0.000000, 2.000000, 663.899963, 1557645463.385974, 4.000000, 4.000000, 4.000000, 4.000000, 4.000000
27.000000, 0.000000, 4377.948730, 4328.717773, 3955.384521, 4082.051270, 4171.794922, 0.000000, 8144.000000, 8361.000000, 0.000000, 0.000000, 0.000000, 2.000000, 671.700012, 1557645463.393774, 4.000000, 4.000000, 4.000000, 4.000000, 4.000000
28.000000, 0.000000, 4396.410156, 4343.076660, 3970.769043, 4101.538574, 4182.051270, 0.000000, 8148.000000, 8359.000000, 0.000000, 0.000000, 0.000000, 2.000000, 679.500000, 1557645463.401574, 4.000000, 4.000000, 4.000000, 4.000000, 4.000000
29.000000, 0.000000, 4421.025391, 4338.974121, 3955.897461, 4092.307617, 4188.205078, 0.000000, 8146.000000, 8364.000000, 0.000000, 0.000000, 0.000000, 2.000000, 687.299988, 1557645463.409374, 4.000000, 4.000000, 4.000000, 4.000000, 4.000000
30.000000, 0.000000, 4435.897461, 4302.051270, 3928.205078, 4075.897217, 4178.974121, 0.000000, 8154.000000, 8358.000000, 0.000000, 0.000000, 0.000000, 2.000000, 695.099976, 1557645463.417174, 4.000000, 4.000000, 4.000000, 4.000000, 4.000000
31.000000, 0.000000, 4464.102539, 4311.794922, 3942.563965, 4082.051270, 4202.051270, 0.000000, 8155.000000, 8358.000000, 0.000000, 0.000000, 0.000000, 2.000000, 702.999988, 1557645463.425074, 4.000000, 4.000000, 4.000000, 4.000000, 4.000000
32.000000, 0.000000, 4525.641113, 4350.256348, 3976.410156, 4075.384521, 4249.230469, 0.000000, 8153.000000, 8364.000000, 0.000000, 0.000000, 0.000000, 2.000000, 710.999988, 1557645463.433074, 4.000000, 4.000000, 4.000000, 4.000000, 4.000000
33.000000, 0.000000, 4555.897461, 4353.846191, 3976.923096, 4091.794678, 4257.948730, 0.000000, 8150.000000, 8364.000000, 0.000000, 0.000000, 0.000000, 2.000000, 718.999989, 1557645463.441074, 4.000000, 4.000000, 4.000000, 4.000000, 4.000000
34.000000, 0.000000, 4528.717773, 4346.153809, 3969.743408, 4119.487305, 4247.179199, 0.000000, 8153.000000, 8350.000000, 0.000000, 0.000000, 0.000000, 2.000000, 726.999989, 1557645463.449074, 4.000000, 4.000000, 4.000000, 4.000000, 4.000000
35.000000, 0.000000, 4514.871582, 4346.153809, 3975.897217, 4094.358887, 4243.589844, 0.000000, 8153.000000, 8354.000000, 0.000000, 0.000000, 0.000000, 2.000000, 734.699989, 1557645463.456774, 4.000000, 4.000000, 4.000000, 4.000000, 4.000000
36.000000, 0.000000, 4510.256348, 4336.410156, 3973.845947, 4081.538330, 4212.307617, 0.000000, 8148.000000, 8362.000000, 0.000000, 0.000000, 0.000000, 2.000000, 742.499989, 1557645463.464574, 4.000000, 4.000000, 4.000000, 4.000000, 4.000000
37.000000, 0.000000, 4478.974121, 4337.436035, 3969.230713, 4109.743652, 4182.051270, 0.000000, 8146.000000, 8365.000000, 0.000000, 0.000000, 0.000000, 2.000000, 750.299988, 1557645463.472374, 4.000000, 4.000000, 4.000000, 4.000000, 4.000000
38.000000, 0.000000, 4475.897461, 4358.461426, 3984.102539, 4102.563965, 4205.641113, 0.000000, 8147.000000, 8351.000000, 0.000000, 0.000000, 0.000000, 2.000000, 758.099987, 1557645463.480174, 4.000000, 4.000000, 4.000000, 4.000000, 4.000000
39.000000, 0.000000, 4496.410156, 4358.461426, 3991.281982, 4084.615234, 4223.589844, 0.000000, 8144.000000, 8356.000000, 0.000000, 0.000000, 0.000000, 2.000000, 765.999985, 1557645463.488074, 4.000000, 4.000000, 4.000000, 4.000000, 4.000000
40.000000, 0.000000, 4468.205078, 4344.615234, 3978.461426, 4094.871582, 4186.153809, 0.000000, 8146.000000, 8363.000000, 0.000000, 0.000000, 0.000000, 2.000000, 773.999985, 1557645463.496074, 4.000000, 4.000000, 4.000000, 4.000000, 4.000000
41.000000, 0.000000, 4440.512695, 4355.897461, 3989.230713, 4096.922852, 4176.410156, 0.000000, 8140.000000, 8351.000000, 0.000000, 0.000000, 0.000000, 2.000000, 781.999985, 1557645463.504074, 4.000000, 4.000000, 4.000000, 4.000000, 4.000000
42.000000, 0.000000, 4467.692383, 4370.769043, 4023.076904, 4109.230469, 4215.384277, 0.000000, 8135.000000, 8352.000000, 0.000000, 0.000000, 0.000000, 2.000000, 789.999985, 1557645463.512074, 4.000000, 4.000000, 4.000000, 4.000000, 4.000000
43.000000, 0.000000, 4470.256348, 4369.230469, 4025.640869, 4127.692383, 4207.179199, 0.000000, 8138.000000, 8355.000000, 0.000000, 0.000000, 0.000000, 2.000000, 797.899986, 1557645463.519974, 4.000000, 4.000000, 4.000000, 4.000000, 4.000000
44.000000, 0.000000, 4425.127930, 4367.692383, 3998.974365, 4111.794922, 4160.000000, 0.000000, 8137.000000, 8345.000000, 0.000000, 0.000000, 0.000000, 2.000000, 805.699989, 1557645463.527774, 4.000000, 4.000000, 4.000000, 4.000000, 4.000000
45.000000, 0.000000, 4405.641113, 4357.948730, 3975.897217, 4084.615234, 4156.410156, 0.000000, 8133.000000, 8350.000000, 0.000000, 0.000000, 0.000000, 2.000000, 813.499985, 1557645463.535574, 4.000000, 4.000000, 4.000000, 4.000000, 4.000000
46.000000, 0.000000, 4421.025391, 4344.102539, 3978.461426, 4096.922852, 4184.615234, 0.000000, 8138.000000, 8355.000000, 0.000000, 0.000000, 0.000000, 2.000000, 821.299988, 1557645463.543374, 4.000000, 4.000000, 4.000000, 4.000000, 4.000000
47.000000, 0.000000, 4428.205078, 4353.846191, 4010.769043, 4128.717773, 4184.615234, 0.000000, 8141.000000, 8344.000000, 0.000000, 0.000000, 0.000000, 2.000000, 829.099991, 1557645463.551174, 4.000000, 4.000000, 4.000000, 4.000000, 4.000000
48.000000, 0.000000, 4424.615234, 4376.410156, 4022.051270, 4118.974121, 4173.333008, 0.000000, 8139.000000, 8342.000000, 0.000000, 0.000000, 0.000000, 2.000000, 836.999985, 1557645463.559074, 4.000000, 4.000000, 4.000000, 4.000000, 4.000000
49.000000, 0.000000, 4426.666504, 4373.846191, 4000.512695, 4085.640869, 4176.410156, 0.000000, 8143.000000, 8357.000000, 0.000000, 0.000000, 0.000000, 2.000000, 844.999985, 1557645463.567074, 4.000000, 4.000000, 4.000000, 4.000000, 4.000000
50.000000, 0.000000, 4415.897461, 4367.692383, 4012.307617, 4092.820313, 4175.897461, 0.000000, 8140.000000, 8362.000000, 0.000000, 0.000000, 0.000000, 2.000000, 852.999985, 1557645463.575074, 4.000000, 4.000000, 4.000000, 4.000000, 4.000000
51.000000, 0.000000, 4388.205078, 4371.281738, 4038.461426, 4124.102539, 4168.205078, 0.000000, 8149.000000, 8348.000000, 0.000000, 0.000000, 0.000000, 2.000000, 860.799988, 1557645463.582874, 4.000000, 4.000000, 4.000000, 4.000000, 4.000000
52.000000, 0.000000, 4382.051270, 4367.692383, 4031.794678, 4122.563965, 4166.153809, 0.000000, 8148.000000, 8348.000000, 0.000000, 0.000000, 0.000000, 2.000000, 868.499985, 1557645463.590574, 4.000000, 4.000000, 4.000000, 4.000000, 4.000000
53.000000, 0.000000, 4389.743652, 4368.717773, 4027.692139, 4096.410156, 4160.512695, 0.000000, 8155.000000, 8351.000000, 0.000000, 0.000000, 0.000000, 2.000000, 876.299988, 1557645463.598374, 4.000000, 4.000000, 4.000000, 4.000000, 4.000000
54.000000, 0.000000, 4376.922852, 4374.358887, 4015.897217, 4093.845947, 4146.153809, 0.000000, 8141.000000, 8348.000000, 0.000000, 0.000000, 0.000000, 2.000000, 884.199982, 1557645463.606274, 4.000000, 4.000000, 4.000000, 4.000000, 4.000000
55.000000, 0.000000, 4352.820313, 4359.487305, 3970.769043, 4102.051270, 4132.820313, 0.000000, 8145.000000, 8355.000000, 0.000000, 0.000000, 0.000000, 2.000000, 892.099991, 1557645463.614174, 4.000000, 4.000000, 4.000000, 4.000000, 4.000000
56.000000, 0.000000, 4333.333008, 4336.922852, 3970.256348, 4085.640869, 4118.461426, 0.000000, 8153.000000, 8359.000000, 0.000000, 0.000000, 0.000000, 2.000000, 899.999985, 1557645463.622074, 4.000000, 4.000000, 4.000000, 4.000000, 4.000000
57.000000, 0.000000, 4321.538574, 4341.538574, 4006.153809, 4080.000000, 4104.102539, 0.000000, 8159.000000, 8356.000000, 0.000000, 0.000000, 0.000000, 2.000000, 907.999985, 1557645463.630074, 4.000000, 4.000000, 4.000000, 4.000000, 4.000000
58.000000, 0.000000, 4328.205078, 4356.922852, 3983.589600, 4085.128174, 4105.641113, 0.000000, 8155.000000, 8355.000000, 0.000000, 0.000000, 0.000000, 2.000000, 915.999985, 1557645463.638074, 4.000000, 4.000000, 4.000000, 4.000000, 4.000000
59.000000, 0.000000, 4342.563965, 4365.641113, 3948.205078, 4070.256348, 4106.666504, 0.000000, 8151.000000, 8361.000000, 0.000000, 0.000000, 0.000000, 2.000000, 923.999985, 1557645463.646074, 4.000000, 4.000000, 4.000000, 4.000000, 4.000000
60.000000, 0.000000, 4326.666504, 4375.897461, 3975.384521, 4081.025635, 4092.307617, 0.000000, 8160.000000, 8352.000000, 0.000000, 0.000000, 0.000000, 2.000000, 931.699982, 1557645463.653774, 4.000000, 4.000000, 4.000000, 4.000000, 4.000000
61.000000, 0.000000, 4300.000000, 4358.974121, 3994.871582, 4106.666504, 4075.384521, 0.000000, 8147.000000, 8349.000000, 0.000000, 0.000000, 0.000000, 2.000000, 939.499985, 1557645463.661574, 4.000000, 4.000000, 4.000000, 4.000000, 4.000000
62.000000, 0.000000, 4297.948730, 4335.384277, 3955.384521, 4099.487305, 4067.692139, 0.000000, 8152.000000, 8360.000000, 0.000000, 0.000000, 0.000000, 2.000000, 947.299988, 1557645463.669374, 4.000000, 4.000000, 4.000000, 4.000000, 4.000000
63.000000, 0.000000, 4311.794922, 4352.820313, 3934.871582, 4083.076904, 4084.615234, 0.000000, 8143.000000, 8370.000000, 0.000000, 0.000000, 0.000000, 2.000000, 955.099976, 1557645463.677174, 4.000000, 4.000000, 4.000000, 4.000000, 4.000000
64.000000, 0.000000, 4322.563965, 4384.615234, 3965.640869, 4081.538330, 4117.948730, 500.000000, 8147.000000, 8358.000000, 0.000000, 0.000000, 0.000000, 2.000000, 963.000000, 1557645463.685074, 4.000000, 4.000000, 4.000000, 4.000000, 4.000000
65.000000, 0.000000, 4303.589844, 4369.743652, 3973.333252, 4079.487061, 4106.153809, 500.000000, 8151.000000, 8361.000000, 0.000000, 0.000000, 0.000000, 2.000000, 970.899994, 1557645463.692974, 4.000000, 4.000000, 4.000000, 4.000000, 4.000000
66.000000, 0.000000, 4277.948730, 4344.615234, 3953.845947, 4095.384521, 4071.281982, 16185.000000, 8148.000000, 8369.000000, 0.000000, 0.000000, 0.000000, 2.000000, 978.899994, 1557645463.700974, 4.000000, 4.000000, 4.000000, 4.000000, 4.000000
67.000000, 0.000000, 4289.743652, 4363.589844, 3962.051270, 4109.230469, 4090.769043, 500.000000, 8149.000000, 8372.000000, 0.000000, 0.000000, 0.000000, 2.000000, 986.899994, 1557645463.708974, 4.000000, 4.000000, 4.000000, 4.000000, 4.000000
68.000000, 0.000000, 4307.179199, 4384.615234, 3989.230713, 4100.512695, 4119.487305, 16097.000000, 8150.000000, 8367.000000, 0.000000, 0.000000, 0.000000, 2.000000, 994.899994, 1557645463.716974, 4.000000, 4.000000, 4.000000, 4.000000, 4.000000
69.000000, 0.000000, 4281.025391, 4378.461426, 3996.410156, 4100.000000, 4089.743408, 500.000000, 8146.000000, 8362.000000, 0.000000, 0.000000, 0.000000, 3.000000, 2.599976, 1557645463.724674, 4.000000, 4.000000, 4.000000, 4.000000, 4.000000
70.000000, 0.000000, 4254.358887, 4365.127930, 3985.640869, 4083.076904, 4056.923096, 16139.000000, 8148.000000, 8354.000000, 0.000000, 0.000000, 0.000000, 3.000000, 10.399994, 1557645463.732474, 4.000000, 4.000000, 4.000000, 4.000000, 4.000000
71.000000, 0.000000, 4262.563965, 4368.205078, 3967.692139, 4064.102539, 4060.512695, 500.000000, 8149.000000, 8350.000000, 0.000000, 0.000000, 0.000000, 3.000000, 18.399994, 1557645463.740474, 4.000000, 4.000000, 4.000000, 4.000000, 4.000000
72.000000, 0.000000, 4253.846191, 4378.461426, 3961.538330, 4088.717773, 4063.589600, 500.000000, 8153.000000, 8352.000000, 0.000000, 0.000000, 0.000000, 3.000000, 26.199982, 1557645463.748274, 4.000000, 4.000000, 4.000000, 4.000000, 4.000000
73.000000, 0.000000, 4228.205078, 4375.384277, 3974.358887, 4087.692139, 4054.358887, 16089.000000, 8150.000000, 8347.000000, 0.000000, 0.000000, 0.000000, 3.000000, 34.000000, 1557645463.756074, 4.000000, 4.000000, 4.000000, 4.000000, 4.000000
74.000000, 0.000000, 4226.666504, 4372.820313, 3974.358887, 4057.435791, 4049.743408, 500.000000, 8156.000000, 8337.000000, 0.000000, 0.000000, 0.000000, 3.000000, 42.000000, 1557645463.764074, 4.000000, 4.000000, 4.000000, 4.000000, 4.000000
75.000000, 0.000000, 4231.281738, 4371.794922, 3950.769043, 4081.025635, 4043.589600, 16149.000000, 8146.000000, 8339.000000, 0.000000, 0.000000, 0.000000, 3.000000, 50.000000, 1557645463.772074, 4.000000, 4.000000, 4.000000, 4.000000, 4.000000
76.000000, 0.000000, 4217.948730, 4364.102539, 3928.717773, 4107.179199, 4025.640869, 500.000000, 8149.000000, 8340.000000, 0.000000, 0.000000, 0.000000, 3.000000, 58.000000, 1557645463.780074, 4.000000, 4.000000, 4.000000, 4.000000, 4.000000
77.000000, 0.000000, 4208.205078, 4358.461426, 3934.358887, 4085.640869, 4020.000000, 500.000000, 8150.000000, 8329.000000, 0.000000, 0.000000, 0.000000, 3.000000, 65.699982, 1557645463.787774, 4.000000, 4.000000, 4.000000, 4.000000, 4.000000
78.000000, 0.000000, 4219.487305, 4375.384277, 3948.205078, 4071.794678, 4041.025635, 450.000000, 8150.000000, 8334.000000, 0.000000, 0.000000, 0.000000, 3.000000, 73.500000, 1557645463.795574, 4.000000, 4.000000, 4.000000, 4.000000, 4.000000
79.000000, 0.000000, 4221.538574, 4402.051270, 3925.128174, 4073.845947, 4053.333252, 16149.000000, 8149.000000, 8342.000000, 0.000000, 0.000000, 0.000000, 3.000000, 81.299988, 1557645463.803374, 4.000000, 4.000000, 4.000000, 4.000000, 4.000000
80.000000, 0.000000, 4200.000000, 4403.076660, 3892.820313, 4074.871582, 4028.205078, 450.000000, 8146.000000, 8337.000000, 0.000000, 0.000000, 0.000000, 3.000000, 89.099976, 1557645463.811174, 4.000000, 4.000000, 4.000000, 4.000000, 4.000000
81.000000, 0.000000, 4180.000000, 4375.384277, 3891.794678, 4082.051270, 3999.487061, 450.000000, 8146.000000, 8336.000000, 0.000000, 0.000000, 0.000000, 3.000000, 97.000000, 1557645463.819074, 4.000000, 4.000000, 4.000000, 4.000000, 4.000000
82.000000, 0.000000, 4182.051270, 4363.589844, 3885.128174, 4092.307617, 4002.051270, 450.000000, 8142.000000, 8330.000000, 0.000000, 0.000000, 0.000000, 3.000000, 105.000000, 1557645463.827074, 4.000000, 4.000000, 4.000000, 4.000000, 4.000000
83.000000, 0.000000, 4193.846191, 4394.358887, 3853.333252, 4088.717773, 4017.435791, 16149.000000, 8141.000000, 8330.000000, 0.000000, 0.000000, 0.000000, 3.000000, 113.000000, 1557645463.835074, 4.000000, 4.000000, 4.000000, 4.000000, 4.000000
84.000000, 0.000000, 4180.512695, 4411.794922, 3839.487061, 4055.384521, 4008.717773, 450.000000, 8140.000000, 8335.000000, 0.000000, 0.000000, 0.000000, 3.000000, 121.000000, 1557645463.843074, 4.000000, 4.000000, 4.000000, 4.000000, 4.000000
85.000000, 0.000000, 4163.076660, 4391.281738, 3836.923096, 4031.794678, 3981.538330, 450.000000, 8141.000000, 8343.000000, 0.000000, 0.000000, 0.000000, 3.000000, 128.799988, 1557645463.850874, 4.000000, 4.000000, 4.000000, 4.000000, 4.000000
86.000000, 0.000000, 4177.948730, 4383.589844, 3815.384521, 4070.256348, 3966.153809, 450.000000, 8142.000000, 8337.000000, 0.000000, 0.000000, 0.000000, 3.000000, 136.500000, 1557645463.858574, 4.000000, 4.000000, 4.000000, 4.000000, 4.000000
87.000000, 0.000000, 4187.179199, 4401.025391, 3808.205078, 4093.845947, 3972.307617, 16149.000000, 8140.000000, 8330.000000, 0.000000, 0.000000, 0.000000, 3.000000, 144.299988, 1557645463.866374, 4.000000, 4.000000, 4.000000, 4.000000, 4.000000
88.000000, 0.000000, 4174.871582, 4405.127930, 3828.205078, 4053.333252, 3990.769043, 450.000000, 8141.000000, 8333.000000, 0.000000, 0.000000, 0.000000, 3.000000, 152.099976, 1557645463.874174, 4.000000, 4.000000, 4.000000, 4.000000, 4.000000
89.000000, 0.000000, 4164.102539, 4388.717773, 3822.563965, 4045.128174, 3978.974365, 450.000000, 8139.000000, 8346.000000, 0.000000, 0.000000, 0.000000, 3.000000, 160.099976, 1557645463.882174, 4.000000, 4.000000, 4.000000, 4.000000, 4.000000
90.000000, 0.000000, 4149.230469, 4381.538574, 3785.128174, 4080.000000, 3936.923096, 450.000000, 8142.000000, 8338.000000, 0.000000, 0.000000, 0.000000, 3.000000, 168.000000, 1557645463.890074, 4.000000, 4.000000, 4.000000, 4.000000, 4.000000
91.000000, 0.000000, 4138.461426, 4393.846191, 3774.871582, 4074.358887, 3931.281982, 16149.000000, 8146.000000, 8339.000000, 0.000000, 0.000000, 0.000000, 3.000000, 176.000000, 1557645463.898074, 4.000000, 4.000000, 4.000000, 4.000000, 4.000000
92.000000, 0.000000, 4144.615234, 4402.051270, 3783.076904, 4051.281982, 3945.128174, 450.000000, 8145.000000, 8352.000000, 0.000000, 0.000000, 0.000000, 3.000000, 184.000000, 1557645463.906074, 4.000000, 4.000000, 4.000000, 4.000000, 4.000000
93.000000, 0.000000, 4151.281738, 4400.000000, 3766.666504, 4051.794678, 3929.230713, 450.000000, 8143.000000, 8358.000000, 0.000000, 0.000000, 0.000000, 3.000000, 192.000000, 1557645463.914074, 4.000000, 4.000000, 4.000000, 4.000000, 4.000000
94.000000, 0.000000, 4146.153809, 4401.025391, 3753.845947, 4034.358887, 3923.076904, 450.000000, 8145.000000, 8349.000000, 0.000000, 0.000000, 0.000000, 3.000000, 199.699982, 1557645463.921774, 4.000000, 4.000000, 4.000000, 4.000000, 4.000000
95.000000, 0.000000, 4147.692383, 4395.384277, 3751.281982, 4026.153809, 3940.512695, 16149.000000, 8143.000000, 8348.000000, 0.000000, 0.000000, 0.000000, 3.000000, 207.500000, 1557645463.929574, 4.000000, 4.000000, 4.000000, 4.000000, 4.000000
96.000000, 0.000000, 4164.102539, 4390.769043, 3736.410156, 4068.205078, 3948.717773, 450.000000, 8145.000000, 8355.000000, 0.000000, 0.000000, 0.000000, 3.000000, 215.299988, 1557645463.937374, 4.000000, 4.000000, 4.000000, 4.000000, 4.000000
97.000000, 0.000000, 4168.717773, 4409.230469, 3723.589600, 4097.436035, 3951.281982, 450.000000, 8146.000000, 8358.000000, 0.000000, 0.000000, 0.000000, 3.000000, 223.099976, 1557645463.945174, 4.000000, 4.000000, 4.000000, 4.000000, 4.000000
98.000000, 0.000000, 4144.615234, 4421.538574, 3717.948730, 4051.794678, 3947.692139, 450.000000, 8144.000000, 8364.000000, 0.000000, 0.000000, 0.000000, 3.000000, 230.899963, 1557645463.952974, 4.000000, 4.000000, 4.000000, 4.000000, 4.000000
99.000000, 0.000000, 4131.794922, 4406.153809, 3710.256348, 3998.974365, 3924.102539, 16149.000000, 8141.000000, 8367.000000, 0.000000, 0.000000, 0.000000, 3.000000, 238.899963, 1557645463.960974, 4.000000, 4.000000, 4.000000, 4.000000, 4.000000
100.000000, 0.000000, 4152.820313, 4393.333008, 3712.820313, 4022.051270, 3909.743408, 450.000000, 8143.000000, 8365.000000, 0.000000, 0.000000, 0.000000, 3.000000, 246.899963, 1557645463.968974, 4.000000, 4.000000, 4.000000, 4.000000, 4.000000
101.000000, 0.000000, 4162.563965, 4416.410156, 3718.461426, 4058.461426, 3921.538330, 450.000000, 8140.000000, 8360.000000, 0.000000, 0.000000, 0.000000, 3.000000, 254.899963, 1557645463.976974, 4.000000, 4.000000, 4.000000, 4.000000, 4.000000
102.000000, 0.000000, 4153.333008, 4433.846191, 3704.102539, 4058.974365, 3918.974365, 450.000000, 8135.000000, 8368.000000, 0.000000, 0.000000, 0.000000, 3.000000, 262.700012, 1557645463.984774, 4.000000, 4.000000, 4.000000, 4.000000, 4.000000
103.000000, 0.000000, 4151.281738, 4423.076660, 3697.435791, 4057.435791, 3894.358887, 16149.000000, 8133.000000, 8370.000000, 0.000000, 0.000000, 0.000000, 3.000000, 270.399963, 1557645463.992474, 4.000000, 4.000000, 4.000000, 4.000000, 4.000000
104.000000, 0.000000, 4145.127930, 4424.615234, 3707.179443, 4062.051270, 3881.538330, 450.000000, 8138.000000, 8363.000000, 0.000000, 0.000000, 0.000000, 3.000000, 278.200012, 1557645464.000274, 4.000000, 4.000000, 4.000000, 4.000000, 4.000000
105.000000, 0.000000, 4131.794922, 4428.205078, 3690.769043, 4052.307617, 3875.384521, 450.000000, 8139.000000, 8375.000000, 0.000000, 0.000000, 0.000000, 3.000000, 286.000000, 1557645464.008074, 4.000000, 4.000000, 4.000000, 4.000000, 4.000000
106.000000, 0.000000, 4119.487305, 4405.127930, 3660.512695, 4043.076904, 3851.281982, 450.000000, 8135.000000, 8372.000000, 0.000000, 0.000000, 0.000000, 3.000000, 294.000000, 1557645464.016074, 4.000000, 4.000000, 4.000000, 4.000000, 4.000000
107.000000, 0.000000, 4112.307617, 4397.435547, 3674.871826, 4033.845947, 3827.179443, 16149.000000, 8135.000000, 8356.000000, 0.000000, 0.000000, 0.000000, 3.000000, 301.899963, 1557645464.023974, 4.000000, 4.000000, 4.000000, 4.000000, 4.000000
108.000000, 0.000000, 4111.281738, 4429.743652, 3704.102539, 4010.769043, 3821.538330, 450.000000, 8141.000000, 8359.000000, 0.000000, 0.000000, 0.000000, 3.000000, 309.899963, 1557645464.031974, 4.000000, 4.000000, 4.000000, 4.000000, 4.000000
109.000000, 0.000000, 4097.436035, 4430.256348, 3683.076904, 4003.589600, 3806.153809, 450.000000, 8143.000000, 8358.000000, 0.000000, 0.000000, 0.000000, 3.000000, 317.899963, 1557645464.039974, 4.000000, 4.000000, 4.000000, 4.000000, 4.000000
110.000000, 0.000000, 4088.205078, 4401.025391, 3657.948730, 4012.820313, 3795.384521, 450.000000, 8140.000000, 8355.000000, 0.000000, 0.000000, 0.000000, 3.000000, 325.899963, 1557645464.047974, 4.000000, 4.000000, 4.000000, 4.000000, 4.000000
111.000000, 0.000000, 4105.127930, 4415.897461, 3664.615234, 4014.871582, 3803.589600, 16149.000000, 8138.000000, 8359.000000, 0.000000, 0.000000, 0.000000, 3.000000, 333.599976, 1557645464.055674, 4.000000, 4.000000, 4.000000, 4.000000, 4.000000
112.000000, 0.000000, 4106.666504, 4437.948730, 3660.512695, 4010.256348, 3796.410156, 450.000000, 8142.000000, 8358.000000, 0.000000, 0.000000, 0.000000, 3.000000, 341.399963, 1557645464.063474, 4.000000, 4.000000, 4.000000, 4.000000, 4.000000
113.000000, 0.000000, 4089.743408, 4417.948730, 3652.820313, 3996.923096, 3772.307617, 450.000000, 8137.000000, 8346.000000, 0.000000, 0.000000, 0.000000, 3.000000, 349.200012, 1557645464.071274, 4.000000, 4.000000, 4.000000, 4.000000, 4.000000
114.000000, 0.000000, 4089.230713, 4409.743652, 3662.563965, 4001.538330, 3756.923096, 450.000000, 8143.000000, 8342.000000, 0.000000, 0.000000, 0.000000, 3.000000, 357.099976, 1557645464.079174, 4.000000, 4.000000, 4.000000, 4.000000, 4.000000
115.000000, 0.000000, 4089.743408, 4427.179199, 3669.230713, 4040.000000, 3749.743408, 16149.000000, 8142.000000, 8349.000000, 0.000000, 0.000000, 0.000000, 3.000000, 364.899963, 1557645464.086974, 4.000000, 4.000000, 4.000000, 4.000000, 4.000000
116.000000, 0.000000, 4080.512695, 4426.153809, 3658.974365, 4035.384521, 3737.948730, 450.000000, 8139.000000, 8345.000000, 0.000000, 0.000000, 0.000000, 3.000000, 372.899963, 1557645464.094974, 4.000000, 4.000000, 4.000000, 4.000000, 4.000000
117.000000, 0.000000, 4082.051270, 4423.076660, 3641.025635, 3983.589600, 3728.205078, 450.000000, 8143.000000, 8336.000000, 0.000000, 0.000000, 0.000000, 3.000000, 380.899963, 1557645464.102974, 4.000000, 4.000000, 4.000000, 4.000000, 4.000000
118.000000, 0.000000, 4075.897217, 4418.974121, 3626.666504, 3974.358887, 3716.410156, 450.000000, 8141.000000, 8333.000000, 0.000000, 0.000000, 0.000000, 3.000000, 388.899963, 1557645464.110974, 4.000000, 4.000000, 4.000000, 4.000000, 4.000000
119.000000, 0.000000, 4050.769043, 4404.102539, 3636.410156, 4000.000000, 3699.487061, 16149.000000, 8139.000000, 8345.000000, 0.000000, 0.000000, 0.000000, 3.000000, 396.700012, 1557645464.118774, 4.000000, 4.000000, 4.000000, 4.000000, 4.000000
120.000000, 0.000000, 4042.563965, 4417.948730, 3653.333252, 3992.820313, 3686.666504, 450.000000, 8140.000000, 8337.000000, 0.000000, 0.000000, 0.000000, 3.000000, 404.399963, 1557645464.126474, 4.000000, 4.000000, 4.000000, 4.000000, 4.000000
121.000000, 0.000000, 4046.153809, 4430.256348, 3643.076904, 3977.435791, 3672.307617, 450.000000, 8145.000000, 8332.000000, 0.000000, 0.000000, 0.000000, 3.000000, 412.200012, 1557645464.134274, 4.000000, 4.000000, 4.000000, 4.000000, 4.000000
122.000000, 0.000000, 4034.871582, 4390.769043, 3629.230713, 3989.230713, 3659.487061, 450.000000, 8140.000000, 8337.000000, 0.000000, 0.000000, 0.000000, 3.000000, 420.099976, 1557645464.142174, 4.000000, 4.000000, 4.000000, 4.000000, 4.000000
123.000000, 0.000000, 4028.205078, 4374.358887, 3634.358887, 3982.563965, 3660.512695, 16149.000000, 8141.000000, 8334.000000, 0.000000, 0.000000, 0.000000, 3.000000, 428.000000, 1557645464.150074, 4.000000, 4.000000, 4.000000, 4.000000, 4.000000
124.000000, 0.000000, 4038.461426, 4408.205078, 3632.820313, 3982.051270, 3663.076904, 450.000000, 8139.000000, 8336.000000, 0.000000, 0.000000, 0.000000, 3.000000, 435.899963, 1557645464.157974, 4.000000, 4.000000, 4.000000, 4.000000, 4.000000
125.000000, 0.000000, 4032.820313, 4401.025391, 3607.692139, 3995.897217, 3641.538330, 450.000000, 8140.000000, 8332.000000, 0.000000, 0.000000, 0.000000, 3.000000, 443.899963, 1557645464.165974, 4.000000, 4.000000, 4.000000, 4.000000, 4.000000
126.000000, 0.000000, 4018.461426, 4379.487305, 3599.487061, 3963.589600, 3620.512695, 450.000000, 8143.000000, 8326.000000, 0.000000, 0.000000, 0.000000, 3.000000, 451.899963, 1557645464.173974, 4.000000, 4.000000, 4.000000, 4.000000, 4.000000
127.000000, 0.000000, 4023.589600, 4397.435547, 3621.025635, 3936.410156, 3624.615234, 16149.000000, 8136.000000, 8327.000000, 0.000000, 0.000000, 0.000000, 3.000000, 459.700012, 1557645464.181774, 4.000000, 4.000000, 4.000000, 4.000000, 4.000000
128.000000, 0.000000, 4016.923096, 4398.974121, 3625.640869, 3962.051270, 3614.358887, 500.000000, 8138.000000, 8338.000000, 0.000000, 0.000000, 0.000000, 3.000000, 467.399963, 1557645464.189474, 4.000000, 4.000000, 4.000000, 4.000000, 4.000000
0.000000, 0.000000, 3993.845947, 4382.563965, 3609.743408, 3975.897217, 3590.256348, 500.000000, 8141.000000, 8344.000000, 0.000000, 0.000000, 0.000000, 3.000000, 475.200012, 1557645464.197274, 4.000000, 4.000000, 4.000000, 4.000000, 4.000000
1.000000, 0.000000, 3983.589600, 4392.820313, 3604.615234, 3941.025635, 3583.589600, 500.000000, 8144.000000, 8334.000000, 0.000000, 0.000000, 0.000000, 3.000000, 483.000000, 1557645464.205074, 4.000000, 4.000000, 4.000000, 4.000000, 4.000000
2.000000, 0.000000, 3976.923096, 4389.743652, 3597.435791, 3937.948730, 3578.461426, 16195.000000, 8139.000000, 8341.000000, 0.000000, 0.000000, 0.000000, 3.000000, 491.000000, 1557645464.213074, 4.000000, 4.000000, 4.000000, 4.000000, 4.000000
3.000000, 0.000000, 3976.410156, 4361.025391, 3586.153809, 3962.563965, 3575.897461, 500.000000, 8140.000000, 8357.000000, 0.000000, 0.000000, 0.000000, 3.000000, 498.899963, 1557645464.220974, 4.000000, 4.000000, 4.000000, 4.000000, 4.000000
4.000000, 0.000000, 3990.769043, 4371.281738, 3601.025635, 3955.384521, 3593.845947, 16096.000000, 8144.000000, 8351.000000, 0.000000, 0.000000, 0.000000, 3.000000, 506.899963, 1557645464.228974, 4.000000, 4.000000, 4.000000, 4.000000, 4.000000
5.000000, 0.000000, 3982.563965, 4392.307617, 3609.743408, 3944.102539, 3589.743408, 500.000000, 8141.000000, 8349.000000, 0.000000, 0.000000, 0.000000, 3.000000, 514.899963, 1557645464.236974, 4.000000, 4.000000, 4.000000, 4.000000, 4.000000
6.000000, 0.000000, 3959.487061, 4372.820313, 3588.205078, 3948.205078, 3560.000000, 16149.000000, 8141.000000, 8361.000000, 0.000000, 0.000000, 0.000000, 3.000000, 522.700012, 1557645464.244774, 4.000000, 4.000000, 4.000000, 4.000000, 4.000000
7.000000, 0.000000, 3968.717773, 4374.358887, 3576.410156, 3946.153809, 3554.871826, 500.000000, 8148.000000, 8355.000000, 0.000000, 0.000000, 0.000000, 3.000000, 530.500000, 1557645464.252574, 4.000000, 4.000000, 4.000000, 4.000000, 4.000000
8.000000, 0.000000, 3977.948730, 4389.743652, 3570.769043, 3938.461426, 3551.281982, 500.000000, 8144.000000, 8356.000000, 0.000000, 0.000000, 0.000000, 3.000000, 538.200012, 1557645464.260274, 4.000000, 4.000000, 4.000000, 4.000000, 4.000000
9.000000, 0.000000, 3961.025635, 4370.769043, 3562.563965, 3932.307617, 3538.974365, 16098.000000, 8140.000000, 8360.000000, 0.000000, 0.000000, 0.000000, 3.000000, 546.000000, 1557645464.268074, 4.000000, 4.000000, 4.000000, 4.000000, 4.000000
10.000000, 0.000000, 3952.307617, 4355.384277, 3569.230713, 3921.538330, 3534.871826, 500.000000, 8138.000000, 8357.000000, 0.000000, 0.000000, 0.000000, 3.000000, 554.000000, 1557645464.276074, 4.000000, 4.000000, 4.000000, 4.000000, 4.000000
11.000000, 0.000000, 3957.948730, 4363.589844, 3577.435791, 3928.717773, 3530.769043, 16167.000000, 8142.000000, 8356.000000, 0.000000, 0.000000, 0.000000, 3.000000, 562.000000, 1557645464.284074, 4.000000, 4.000000, 4.000000, 4.000000, 4.000000
12.000000, 0.000000, 3963.076904, 4369.743652, 3578.974365, 3951.794678, 3527.179443, 500.000000, 8144.000000, 8365.000000, 0.000000, 0.000000, 0.000000, 3.000000, 569.899963, 1557645464.291974, 4.000000, 4.000000, 4.000000, 4.000000, 4.000000
13.000000, 0.000000, 3953.333252, 4356.410156, 3572.307617, 3940.000000, 3519.487061, 500.000000, 8143.000000, 8363.000000, 0.000000, 0.000000, 0.000000, 3.000000, 577.899963, 1557645464.299974, 4.000000, 4.000000, 4.000000, 4.000000, 4.000000
14.000000, 0.000000, 3934.358887, 4352.820313, 3558.461426, 3902.051270, 3509.743408, 450.000000, 8147.000000, 8351.000000, 0.000000, 0.000000, 0.000000, 3.000000, 585.899963, 1557645464.307974, 4.000000, 4.000000, 4.000000, 4.000000, 4.000000
15.000000, 0.000000, 3934.358887, 4366.153809, 3565.128174, 3903.076904, 3510.769043, 16167.000000, 8140.000000, 8352.000000, 0.000000, 0.000000, 0.000000, 3.000000, 593.700012, 1557645464.315774, 4.000000, 4.000000, 4.000000, 4.000000, 4.000000
16.000000, 0.000000, 3942.051270, 4362.051270, 3581.025635, 3926.666504, 3501.538330, 0.000000, 8144.000000, 8362.000000, 0.000000, 0.000000, 0.000000, 3.000000, 601.399963, 1557645464.323474, 4.000000, 4.000000, 4.000000, 4.000000, 4.000000
17.000000, 0.000000, 3942.563965, 4345.127930, 3556.410156, 3907.179443, 3481.025635, 0.000000, 8146.000000, 8371.000000, 0.000000, 0.000000, 0.000000, 3.000000, 609.200012, 1557645464.331274, 4.000000, 4.000000, 4.000000, 4.000000, 4.000000
18.000000, 0.000000, 3940.512695, 4358.974121, 3532.307617, 3888.205078, 3485.640869, 0.000000, 8150.000000, 8354.000000, 0.000000, 0.000000, 0.000000, 3.000000, 617.000000, 1557645464.339074, 4.000000, 4.000000, 4.000000, 4.000000, 4.000000
19.000000, 0.000000, 3931.281982, 4375.897461, 3554.871826, 3912.307617, 3497.435791, 0.000000, 8144.000000, 8355.000000, 0.000000, 0.000000, 0.000000, 3.000000, 625.000000, 1557645464.347074, 4.000000, 4.000000, 4.000000, 4.000000, 4.000000
20.000000, 0.000000, 3928.205078, 4362.051270, 3574.871826, 3919.487061, 3494.871826, 0.000000, 8140.000000, 8358.000000, 0.000000, 0.000000, 0.000000, 3.000000, 632.899963, 1557645464.354974, 4.000000, 4.000000, 4.000000, 4.000000, 4.000000
21.000000, 0.000000, 3938.461426, 4356.922852, 3569.230713, 3885.640869, 3495.897461, 0.000000, 8145.000000, 8366.000000, 0.000000, 0.000000, 0.000000, 3.000000, 640.899963, 1557645464.362974, 4.000000, 4.000000, 4.000000, 4.000000, 4.000000
22.000000, 0.000000, 3936.923096, 4361.025391, 3571.794678, 3886.666504, 3490.769043, 0.000000, 8141.000000, 8362.000000, 0.000000, 0.000000, 0.000000, 3.000000, 648.899963, 1557645464.370974, 4.000000, 4.000000, 4.000000, 4.000000, 4.000000
23.000000, 0.000000, 3921.025635, 4351.794922, 3576.410156, 3918.461426, 3486.153809, 0.000000, 8145.000000, 8359.000000, 0.000000, 0.000000, 0.000000, 3.000000, 656.700012, 1557645464.378774, 4.000000, 4.000000, 4.000000, 4.000000, 4.000000
24.000000, 0.000000, 3911.794678, 4330.769043, 3561.538330, 3896.410156, 3477.435791, 0.000000, 8145.000000, 8353.000000, 0.000000, 0.000000, 0.000000, 3.000000, 664.399963, 1557645464.386474, 4.000000, 4.000000, 4.000000, 4.000000, 4.000000
25.000000, 0.000000, 3908.205078, 4326.666504, 3556.410156, 3865.128174, 3455.897461, 0.000000, 8148.000000, 8356.000000, 0.000000, 0.000000, 0.000000, 3.000000, 672.200012, 1557645464.394274, 4.000000, 4.000000, 4.000000, 4.000000, 4.000000
26.000000, 0.000000, 3920.512695, 4358.974121, 3572.307617, 3896.410156, 3452.307617, 0.000000, 8147.000000, 8359.000000, 0.000000, 0.000000, 0.000000, 3.000000, 680.099976, 1557645464.402174, 4.000000, 4.000000, 4.000000, 4.000000, 4.000000
27.000000, 0.000000, 3929.230713, 4356.410156, 3573.333252, 3914.358887, 3461.025635, 0.000000, 8143.000000, 8355.000000, 0.000000, 0.000000, 0.000000, 3.000000, 688.099976, 1557645464.410174, 4.000000, 4.000000, 4.000000, 4.000000, 4.000000
28.000000, 0.000000, 3911.794678, 4323.076660, 3570.256348, 3883.589600, 3458.461426, 0.000000, 8144.000000, 8348.000000, 0.000000, 0.000000, 0.000000, 3.000000, 696.099976, 1557645464.418174, 4.000000, 4.000000, 4.000000, 4.000000, 4.000000
29.000000, 0.000000, 3906.153809, 4336.922852, 3577.435791, 3880.000000, 3456.923096, 0.000000, 8141.000000, 8361.000000, 0.000000, 0.000000, 0.000000, 3.000000, 703.999988, 1557645464.426074, 4.000000, 4.000000, 4.000000, 4.000000, 4.000000
30.000000, 0.000000, 3911.794678, 4346.153809, 3567.179443, 3887.179443, 3452.820313, 0.000000, 8141.000000, 8365.000000, 0.000000, 0.000000, 0.000000, 3.000000, 711.999988, 1557645464.434074, 4.000000, 4.000000, 4.000000, 4.000000, 4.000000
31.000000, 0.000000, 3903.076904, 4316.922852, 3558.974365, 3872.307617, 3435.384521, 0.000000, 8146.000000, 8349.000000, 0.000000, 0.000000, 0.000000, 3.000000, 719.999989, 1557645464.442074, 4.000000, 4.000000, 4.000000, 4.000000, 4.000000
32.000000, 0.000000, 3897.948730, 4323.589844, 3573.845947, 3871.281982, 3439.487061, 0.000000, 8144.000000, 8354.000000, 0.000000, 0.000000, 0.000000, 3.000000, 727.799988, 1557645464.449874, 4.000000, 4.000000, 4.000000, 4.000000, 4.000000
33.000000, 0.000000, 3911.281982, 4341.538574, 3580.000000, 3883.076904, 3457.435791, 0.000000, 8143.000000, 8361.000000, 0.000000, 0.000000, 0.000000, 3.000000, 735.499989, 1557645464.457574, 4.000000, 4.000000, 4.000000, 4.000000, 4.000000
34.000000, 0.000000, 3912.307617, 4322.051270, 3572.820313, 3874.358887, 3438.974365, 0.000000, 8148.000000, 8348.000000, 0.000000, 0.000000, 0.000000, 3.000000, 743.299988, 1557645464.465374, 4.000000, 4.000000, 4.000000, 4.000000, 4.000000
35.000000, 0.000000, 3889.743408, 4309.743652, 3574.871826, 3858.461426, 3418.461426, 0.000000, 8147.000000, 8342.000000, 0.000000, 0.000000, 0.000000, 3.000000, 751.099987, 1557645464.473174, 4.000000, 4.000000, 4.000000, 4.000000, 4.000000
36.000000, 0.000000, 3884.615234, 4307.692383, 3574.871826, 3861.538330, 3435.384521, 0.000000, 8148.000000, 8343.000000, 0.000000, 0.000000, 0.000000, 3.000000, 759.099987, 1557645464.481174, 4.000000, 4.000000, 4.000000, 4.000000, 4.000000
37.000000, 0.000000, 3907.179443, 4309.743652, 3570.769043, 3875.384521, 3453.846191, 0.000000, 8146.000000, 8344.000000, 0.000000, 0.000000, 0.000000, 3.000000, 766.999985, 1557645464.489074, 4.000000, 4.000000, 4.000000, 4.000000, 4.000000
38.000000, 0.000000, 3911.794678, 4328.205078, 3570.769043, 3885.640869, 3446.153809, 0.000000, 8149.000000, 8346.000000, 0.000000, 0.000000, 0.000000, 3.000000, 774.999985, 1557645464.497074, 4.000000, 4.000000, 4.000000, 4.000000, 4.000000
39.000000, 0.000000, 3894.871582, 4322.563965, 3574.358887, 3879.487061, 3443.076904, 0.000000, 8142.000000, 8346.000000, 0.000000, 0.000000, 0.000000, 3.000000, 782.999985, 1557645464.505074, 4.000000, 4.000000, 4.000000, 4.000000, 4.000000
40.000000, 0.000000, 3894.358887, 4293.846191, 3584.102539, 3871.281982, 3447.692139, 0.000000, 8143.000000, 8339.000000, 0.000000, 0.000000, 0.000000, 3.000000, 790.799988, 1557645464.512874, 4.000000, 4.000000, 4.000000, 4.000000, 4.000000
41.000000, 0.000000, 3898.974365, 4291.281738, 3588.205078, 3866.666504, 3444.102539, 0.000000, 8146.000000, 8348.000000, 0.000000, 0.000000, 0.000000, 3.000000, 798.499985, 1557645464.520574, 4.000000, 4.000000, 4.000000, 4.000000, 4.000000
42.000000, 0.000000, 3894.871582, 4312.820313, 3588.717773, 3882.051270, 3442.051270, 0.000000, 8141.000000, 8359.000000, 0.000000, 0.000000, 0.000000, 3.000000, 806.299988, 1557645464.528374, 4.000000, 4.000000, 4.000000, 4.000000, 4.000000
43.000000, 0.000000, 3887.692139, 4324.102539, 3597.435791, 3896.923096, 3439.487061, 0.000000, 8144.000000, 8361.000000, 0.000000, 0.000000, 0.000000, 3.000000, 814.099991, 1557645464.536174, 4.000000, 4.000000, 4.000000, 4.000000, 4.000000
44.000000, 0.000000, 3868.205078, 4303.076660, 3600.512695, 3867.692139, 3431.794678, 0.000000, 8145.000000, 8344.000000, 0.000000, 0.000000, 0.000000, 3.000000, 822.099991, 1557645464.544174, 4.000000, 4.000000, 4.000000, 4.000000, 4.000000
45.000000, 0.000000, 3846.153809, 4275.897461, 3582.563965, 3841.538330, 3429.230713, 0.000000, 8141.000000, 8341.000000, 0.000000, 0.000000, 0.000000, 3.000000, 830.099991, 1557645464.552174, 4.000000, 4.000000, 4.000000, 4.000000, 4.000000
46.000000, 0.000000, 3850.256348, 4281.538574, 3576.410156, 3863.076904, 3436.410156, 0.000000, 8138.000000, 8354.000000, 0.000000, 0.000000, 0.000000, 3.000000, 837.999985, 1557645464.560074, 4.000000, 4.000000, 4.000000, 4.000000, 4.000000
47.000000, 0.000000, 3873.333252, 4303.589844, 3603.589600, 3872.307617, 3455.897461, 0.000000, 8139.000000, 8357.000000, 0.000000, 0.000000, 0.000000, 3.000000, 845.999985, 1557645464.568074, 4.000000, 4.000000, 4.000000, 4.000000, 4.000000
48.000000, 0.000000, 3880.000000, 4289.230469, 3610.256348, 3846.153809, 3457.948730, 0.000000, 8137.000000, 8349.000000, 0.000000, 0.000000, 0.000000, 3.000000, 853.799988, 1557645464.575874, 4.000000, 4.000000, 4.000000, 4.000000, 4.000000
49.000000, 0.000000, 3873.333252, 4279.487305, 3593.845947, 3865.640869, 3443.589600, 0.000000, 8142.000000, 8345.000000, 0.000000, 0.000000, 0.000000, 3.000000, 861.599991, 1557645464.583674, 4.000000, 4.000000, 4.000000, 4.000000, 4.000000
