title:deepaksad1, recorded:12.05.19 07.28.53, timestamp started:2019-05-12T07:28:53.710671+05:30, sampling:128, subject:, labels:COUNTER INTERPOLATED AF3 T7 Pz T8 AF4 RAW_CQ GYROX GYROY MARKER MARKER_HARDWARE SYNC TIME_STAMP_s TIME_STAMP_ms TimeStamp CQ_AF3 CQ_T7 CQ_Pz CQ_T8 CQ_AF4, chan:20, samples:15456, units:emotiv
36.000000, 0.000000, 4235.384277, 4364.615234, 4077.948730, 4048.205078, 4073.333252, 0.000000, 8121.000000, 8359.000000, 1.000000, 3.000000, 0.000000, 0.000000, 0.000000, 1557626333.710671, 4.000000, 4.000000, 1.000000, 4.000000, 4.000000
37.000000, 0.000000, 4235.897461, 4356.410156, 4076.410156, 4034.871582, 4064.615234, 0.000000, 8126.000000, 8362.000000, 0.000000, 0.000000, 0.000000, 0.000000, 7.900024, 1557626333.718571, 4.000000, 4.000000, 1.000000, 4.000000, 4.000000
38.000000, 0.000000, 4227.692383, 4364.102539, 4067.692139, 4036.923096, 4050.256348, 0.000000, 8131.000000, 8352.000000, 0.000000, 0.000000, 0.000000, 0.000000, 15.900024, 1557626333.726571, 4.000000, 4.000000, 1.000000, 4.000000, 4.000000
39.000000, 0.000000, 4220.512695, 4378.974121, 4081.025635, 4051.794678, 4060.000000, 0.000000, 8134.000000, 8368.000000, 0.000000, 0.000000, 0.000000, 0.000000, 23.900024, 1557626333.734571, 4.000000, 4.000000, 1.000000, 4.000000, 4.000000
40.000000, 0.000000, 4229.230469, 4380.512695, 4107.179199, 4045.128174, 4088.205078, 0.000000, 8139.000000, 8382.000000, 0.000000, 0.000000, 0.000000, 0.000000, 31.799988, 1557626333.742471, 4.000000, 4.000000, 1.000000, 4.000000, 4.000000
41.000000, 0.000000, 4235.384277, 4365.127930, 4098.974121, 4038.461426, 4090.256348, 0.000000, 8138.000000, 8385.000000, 0.000000, 0.000000, 0.000000, 0.000000, 39.799988, 1557626333.750471, 4.000000, 4.000000, 1.000000, 4.000000, 4.000000
42.000000, 0.000000, 4232.307617, 4368.205078, 4081.025635, 4042.563965, 4069.230713, 0.000000, 8143.000000, 8376.000000, 0.000000, 0.000000, 0.000000, 0.000000, 47.700012, 1557626333.758371, 4.000000, 4.000000, 1.000000, 4.000000, 4.000000
43.000000, 0.000000, 4233.333008, 4385.127930, 4091.794678, 4041.538330, 4064.102539, 0.000000, 8148.000000, 8379.000000, 0.000000, 0.000000, 0.000000, 0.000000, 55.700012, 1557626333.766371, 4.000000, 4.000000, 1.000000, 4.000000, 4.000000
44.000000, 0.000000, 4221.538574, 4379.487305, 4102.051270, 4043.589600, 4074.871582, 0.000000, 8149.000000, 8386.000000, 0.000000, 0.000000, 0.000000, 0.000000, 63.600037, 1557626333.774271, 4.000000, 4.000000, 1.000000, 4.000000, 4.000000
45.000000, 0.000000, 4206.666504, 4364.615234, 4090.256348, 4044.615234, 4070.256348, 0.000000, 8156.000000, 8378.000000, 0.000000, 0.000000, 0.000000, 0.000000, 71.600037, 1557626333.782271, 4.000000, 4.000000, 1.000000, 4.000000, 4.000000
46.000000, 0.000000, 4228.717773, 4384.615234, 4086.666504, 4038.974365, 4066.666504, 0.000000, 8148.000000, 8380.000000, 0.000000, 0.000000, 0.000000, 0.000000, 79.500000, 1557626333.790171, 4.000000, 4.000000, 1.000000, 4.000000, 4.000000
47.000000, 0.000000, 4256.922852, 4404.615234, 4091.794678, 4041.025635, 4069.743408, 0.000000, 8157.000000, 8378.000000, 0.000000, 0.000000, 0.000000, 0.000000, 87.500000, 1557626333.798171, 4.000000, 4.000000, 1.000000, 4.000000, 4.000000
48.000000, 0.000000, 4252.307617, 4376.410156, 4086.153809, 4047.692139, 4055.897217, 0.000000, 8155.000000, 8375.000000, 0.000000, 0.000000, 0.000000, 0.000000, 95.500000, 1557626333.806171, 4.000000, 4.000000, 1.000000, 4.000000, 4.000000
49.000000, 0.000000, 4240.512695, 4360.000000, 4088.205078, 4047.179443, 4061.538330, 0.000000, 8149.000000, 8376.000000, 0.000000, 0.000000, 0.000000, 0.000000, 103.400024, 1557626333.814071, 4.000000, 4.000000, 1.000000, 4.000000, 4.000000
50.000000, 0.000000, 4235.384277, 4375.897461, 4092.307617, 4047.179443, 4082.563965, 0.000000, 8149.000000, 8367.000000, 0.000000, 0.000000, 0.000000, 0.000000, 111.400024, 1557626333.822071, 4.000000, 4.000000, 1.000000, 4.000000, 4.000000
51.000000, 0.000000, 4225.127930, 4367.692383, 4086.153809, 4051.281982, 4068.717773, 0.000000, 8154.000000, 8360.000000, 0.000000, 0.000000, 0.000000, 0.000000, 119.299988, 1557626333.829971, 4.000000, 4.000000, 1.000000, 4.000000, 4.000000
52.000000, 0.000000, 4227.692383, 4354.358887, 4085.640869, 4048.717773, 4051.794678, 0.000000, 8141.000000, 8355.000000, 0.000000, 0.000000, 0.000000, 0.000000, 127.299988, 1557626333.837971, 4.000000, 4.000000, 1.000000, 4.000000, 4.000000
53.000000, 0.000000, 4242.051270, 4373.333008, 4086.153809, 4043.589600, 4066.153809, 0.000000, 8145.000000, 8370.000000, 0.000000, 0.000000, 0.000000, 0.000000, 135.200012, 1557626333.845871, 4.000000, 4.000000, 1.000000, 4.000000, 4.000000
54.000000, 0.000000, 4242.051270, 4384.615234, 4088.717773, 4036.923096, 4085.128174, 0.000000, 8140.000000, 8361.000000, 0.000000, 0.000000, 0.000000, 0.000000, 143.200012, 1557626333.853871, 4.000000, 4.000000, 1.000000, 4.000000, 4.000000
55.000000, 0.000000, 4244.102539, 4380.000000, 4108.205078, 4048.205078, 4103.076660, 0.000000, 8138.000000, 8351.000000, 0.000000, 0.000000, 0.000000, 0.000000, 151.100037, 1557626333.861771, 4.000000, 4.000000, 1.000000, 4.000000, 4.000000
56.000000, 0.000000, 4253.333008, 4384.615234, 4116.410156, 4065.128174, 4107.179199, 0.000000, 8132.000000, 8356.000000, 0.000000, 0.000000, 0.000000, 0.000000, 159.100037, 1557626333.869771, 4.000000, 4.000000, 1.000000, 4.000000, 4.000000
57.000000, 0.000000, 4242.051270, 4370.769043, 4091.281982, 4043.076904, 4074.358887, 0.000000, 8133.000000, 8358.000000, 0.000000, 0.000000, 0.000000, 0.000000, 167.000000, 1557626333.877671, 4.000000, 4.000000, 1.000000, 4.000000, 4.000000
58.000000, 0.000000, 4226.153809, 4356.922852, 4085.640869, 4021.538330, 4060.000000, 0.000000, 8126.000000, 8356.000000, 0.000000, 0.000000, 0.000000, 0.000000, 175.000000, 1557626333.885671, 4.000000, 4.000000, 1.000000, 4.000000, 4.000000
59.000000, 0.000000, 4240.512695, 4385.127930, 4114.358887, 4036.410156, 4090.769043, 0.000000, 8127.000000, 8352.000000, 0.000000, 0.000000, 0.000000, 0.000000, 183.000000, 1557626333.893671, 4.000000, 4.000000, 1.000000, 4.000000, 4.000000
60.000000, 0.000000, 4260.000000, 4405.641113, 4107.692383, 4045.640869, 4096.410156, 0.000000, 8127.000000, 8355.000000, 0.000000, 0.000000, 0.000000, 0.000000, 190.900024, 1557626333.901571, 4.000000, 4.000000, 1.000000, 4.000000, 4.000000
61.000000, 0.000000, 4254.871582, 4381.025391, 4076.410156, 4036.410156, 4072.820313, 0.000000, 8133.000000, 8346.000000, 0.000000, 0.000000, 0.000000, 0.000000, 198.900024, 1557626333.909571, 4.000000, 4.000000, 1.000000, 4.000000, 4.000000
62.000000, 0.000000, 4248.717773, 4370.256348, 4078.461426, 4028.717773, 4066.666504, 0.000000, 8127.000000, 8349.000000, 0.000000, 0.000000, 0.000000, 0.000000, 206.799988, 1557626333.917471, 4.000000, 4.000000, 1.000000, 4.000000, 4.000000
63.000000, 0.000000, 4251.794922, 4395.897461, 4098.974121, 4029.743408, 4072.820313, 0.000000, 8132.000000, 8350.000000, 0.000000, 0.000000, 0.000000, 0.000000, 214.799988, 1557626333.925471, 4.000000, 4.000000, 1.000000, 4.000000, 4.000000
64.000000, 0.000000, 4253.846191, 4404.102539, 4107.179199, 4046.153809, 4075.384521, 500.000000, 8145.000000, 8340.000000, 0.000000, 0.000000, 0.000000, 0.000000, 222.700012, 1557626333.933371, 4.000000, 4.000000, 1.000000, 4.000000, 4.000000
65.000000, 0.000000, 4256.410156, 4390.769043, 4103.589844, 4062.563965, 4076.923096, 500.000000, 8153.000000, 8341.000000, 0.000000, 0.000000, 0.000000, 0.000000, 230.700012, 1557626333.941371, 4.000000, 4.000000, 1.000000, 4.000000, 4.000000
66.000000, 0.000000, 4258.461426, 4389.743652, 4104.615234, 4062.563965, 4089.230713, 16188.000000, 8145.000000, 8352.000000, 0.000000, 0.000000, 0.000000, 0.000000, 238.600037, 1557626333.949271, 4.000000, 4.000000, 1.000000, 4.000000, 4.000000
67.000000, 0.000000, 4260.000000, 4398.461426, 4111.281738, 4070.769043, 4106.153809, 500.000000, 8151.000000, 8348.000000, 0.000000, 0.000000, 0.000000, 0.000000, 246.600037, 1557626333.957271, 4.000000, 4.000000, 1.000000, 4.000000, 4.000000
68.000000, 0.000000, 4259.487305, 4399.487305, 4114.358887, 4075.897217, 4107.179199, 16093.000000, 8154.000000, 8339.000000, 0.000000, 0.000000, 0.000000, 0.000000, 254.600037, 1557626333.965271, 4.000000, 4.000000, 1.000000, 4.000000, 4.000000
69.000000, 0.000000, 4252.307617, 4398.974121, 4116.410156, 4067.179443, 4104.615234, 500.000000, 8154.000000, 8338.000000, 0.000000, 0.000000, 0.000000, 0.000000, 262.500000, 1557626333.973171, 4.000000, 4.000000, 1.000000, 4.000000, 4.000000
70.000000, 0.000000, 4248.717773, 4401.025391, 4117.948730, 4079.487061, 4111.281738, 85.000000, 8154.000000, 8347.000000, 0.000000, 0.000000, 0.000000, 0.000000, 270.500000, 1557626333.981171, 4.000000, 4.000000, 1.000000, 4.000000, 4.000000
71.000000, 0.000000, 4266.153809, 4392.820313, 4120.000000, 4090.769043, 4110.256348, 500.000000, 8155.000000, 8347.000000, 0.000000, 0.000000, 0.000000, 0.000000, 278.400024, 1557626333.989071, 4.000000, 4.000000, 1.000000, 4.000000, 4.000000
72.000000, 0.000000, 4280.000000, 4394.358887, 4124.102539, 4080.000000, 4109.230469, 500.000000, 8154.000000, 8342.000000, 0.000000, 0.000000, 0.000000, 0.000000, 286.400024, 1557626333.997071, 4.000000, 4.000000, 1.000000, 4.000000, 4.000000
73.000000, 0.000000, 4274.871582, 4422.563965, 4123.076660, 4075.897217, 4122.051270, 288.000000, 8156.000000, 8348.000000, 0.000000, 0.000000, 0.000000, 0.000000, 294.299988, 1557626334.004971, 4.000000, 4.000000, 1.000000, 4.000000, 4.000000
74.000000, 0.000000, 4277.948730, 4431.794922, 4111.794922, 4080.000000, 4123.589844, 500.000000, 8162.000000, 8348.000000, 0.000000, 0.000000, 0.000000, 0.000000, 302.299988, 1557626334.012971, 4.000000, 4.000000, 1.000000, 4.000000, 4.000000
75.000000, 0.000000, 4288.717773, 4410.769043, 4113.846191, 4085.128174, 4121.025391, 16175.000000, 8151.000000, 8352.000000, 0.000000, 0.000000, 0.000000, 0.000000, 310.200012, 1557626334.020871, 4.000000, 4.000000, 1.000000, 4.000000, 4.000000
76.000000, 0.000000, 4293.333008, 4406.153809, 4123.589844, 4098.974121, 4126.666504, 500.000000, 8146.000000, 8351.000000, 0.000000, 0.000000, 0.000000, 0.000000, 318.200012, 1557626334.028871, 4.000000, 4.000000, 1.000000, 4.000000, 4.000000
77.000000, 0.000000, 4296.922852, 4415.384277, 4121.538574, 4097.436035, 4114.358887, 500.000000, 8144.000000, 8347.000000, 0.000000, 0.000000, 0.000000, 0.000000, 326.200012, 1557626334.036871, 4.000000, 4.000000, 1.000000, 4.000000, 4.000000
78.000000, 0.000000, 4292.820313, 4412.820313, 4117.436035, 4076.410156, 4104.615234, 450.000000, 8143.000000, 8344.000000, 0.000000, 0.000000, 0.000000, 0.000000, 334.100037, 1557626334.044771, 4.000000, 4.000000, 1.000000, 4.000000, 4.000000
79.000000, 0.000000, 4287.179199, 4418.461426, 4118.974121, 4071.281982, 4119.487305, 16175.000000, 8134.000000, 8356.000000, 0.000000, 0.000000, 0.000000, 0.000000, 342.100037, 1557626334.052771, 4.000000, 4.000000, 1.000000, 4.000000, 4.000000
80.000000, 0.000000, 4301.538574, 4431.794922, 4116.922852, 4091.794678, 4129.230469, 450.000000, 8139.000000, 8355.000000, 0.000000, 0.000000, 0.000000, 0.000000, 350.000000, 1557626334.060671, 4.000000, 4.000000, 1.000000, 4.000000, 4.000000
81.000000, 0.000000, 4306.153809, 4425.127930, 4116.410156, 4097.948730, 4129.230469, 450.000000, 8142.000000, 8350.000000, 0.000000, 0.000000, 0.000000, 0.000000, 358.000000, 1557626334.068671, 4.000000, 4.000000, 1.000000, 4.000000, 4.000000
82.000000, 0.000000, 4285.641113, 4407.179199, 4128.717773, 4088.205078, 4136.410156, 450.000000, 8140.000000, 8349.000000, 0.000000, 0.000000, 0.000000, 0.000000, 365.900024, 1557626334.076571, 4.000000, 4.000000, 1.000000, 4.000000, 4.000000
83.000000, 0.000000, 4286.666504, 4413.333008, 4141.025391, 4098.974121, 4143.589844, 16175.000000, 8143.000000, 8360.000000, 0.000000, 0.000000, 0.000000, 0.000000, 373.900024, 1557626334.084571, 4.000000, 4.000000, 1.000000, 4.000000, 4.000000
84.000000, 0.000000, 4296.410156, 4421.025391, 4133.846191, 4101.025391, 4130.256348, 450.000000, 8139.000000, 8352.000000, 0.000000, 0.000000, 0.000000, 0.000000, 381.799988, 1557626334.092471, 4.000000, 4.000000, 1.000000, 4.000000, 4.000000
85.000000, 0.000000, 4279.487305, 4415.384277, 4123.076660, 4071.281982, 4117.436035, 450.000000, 8143.000000, 8354.000000, 0.000000, 0.000000, 0.000000, 0.000000, 389.799988, 1557626334.100471, 4.000000, 4.000000, 1.000000, 4.000000, 4.000000
86.000000, 0.000000, 4279.487305, 4418.974121, 4130.769043, 4070.769043, 4133.333008, 450.000000, 8138.000000, 8359.000000, 0.000000, 0.000000, 0.000000, 0.000000, 397.799988, 1557626334.108471, 4.000000, 4.000000, 1.000000, 4.000000, 4.000000
87.000000, 0.000000, 4303.589844, 4431.794922, 4144.102539, 4113.846191, 4156.922852, 16175.000000, 8135.000000, 8354.000000, 0.000000, 0.000000, 0.000000, 0.000000, 405.700012, 1557626334.116371, 4.000000, 4.000000, 1.000000, 4.000000, 4.000000
88.000000, 0.000000, 4308.205078, 4438.461426, 4145.127930, 4132.820313, 4158.974121, 450.000000, 8136.000000, 8354.000000, 0.000000, 0.000000, 0.000000, 0.000000, 413.700012, 1557626334.124371, 4.000000, 4.000000, 1.000000, 4.000000, 4.000000
89.000000, 0.000000, 4312.307617, 4441.538574, 4145.127930, 4113.846191, 4149.230469, 450.000000, 8134.000000, 8367.000000, 0.000000, 0.000000, 0.000000, 0.000000, 421.600012, 1557626334.132271, 4.000000, 4.000000, 1.000000, 4.000000, 4.000000
90.000000, 0.000000, 4322.051270, 4446.666504, 4141.025391, 4095.384521, 4140.512695, 450.000000, 8137.000000, 8361.000000, 0.000000, 0.000000, 0.000000, 0.000000, 429.600012, 1557626334.140271, 4.000000, 4.000000, 1.000000, 4.000000, 4.000000
91.000000, 0.000000, 4312.307617, 4446.666504, 4135.897461, 4093.333252, 4133.333008, 16175.000000, 8141.000000, 8361.000000, 0.000000, 0.000000, 0.000000, 0.000000, 437.500011, 1557626334.148171, 4.000000, 4.000000, 1.000000, 4.000000, 4.000000
92.000000, 0.000000, 4314.358887, 4447.179199, 4151.281738, 4110.256348, 4152.307617, 450.000000, 8148.000000, 8368.000000, 0.000000, 0.000000, 0.000000, 0.000000, 445.500011, 1557626334.156171, 4.000000, 4.000000, 1.000000, 4.000000, 4.000000
93.000000, 0.000000, 4342.051270, 4456.410156, 4164.615234, 4125.127930, 4184.615234, 450.000000, 8142.000000, 8375.000000, 0.000000, 0.000000, 0.000000, 0.000000, 453.400013, 1557626334.164071, 4.000000, 4.000000, 1.000000, 4.000000, 4.000000
94.000000, 0.000000, 4348.205078, 4461.538574, 4156.410156, 4124.615234, 4188.717773, 450.000000, 8147.000000, 8361.000000, 0.000000, 0.000000, 0.000000, 0.000000, 461.400013, 1557626334.172071, 4.000000, 4.000000, 1.000000, 4.000000, 4.000000
95.000000, 0.000000, 4326.666504, 4460.000000, 4149.743652, 4121.025391, 4177.436035, 16175.000000, 8147.000000, 8360.000000, 0.000000, 0.000000, 0.000000, 0.000000, 469.300011, 1557626334.179971, 4.000000, 4.000000, 1.000000, 4.000000, 4.000000
96.000000, 0.000000, 4321.538574, 4459.487305, 4153.846191, 4125.641113, 4181.538574, 450.000000, 8147.000000, 8366.000000, 0.000000, 0.000000, 0.000000, 0.000000, 477.100014, 1557626334.187771, 4.000000, 4.000000, 1.000000, 4.000000, 4.000000
97.000000, 0.000000, 4333.846191, 4462.051270, 4159.487305, 4125.127930, 4184.615234, 450.000000, 8143.000000, 8363.000000, 0.000000, 0.000000, 0.000000, 0.000000, 484.900009, 1557626334.195571, 4.000000, 4.000000, 1.000000, 4.000000, 4.000000
98.000000, 0.000000, 4341.025391, 4456.410156, 4155.897461, 4121.538574, 4168.717773, 450.000000, 8145.000000, 8359.000000, 0.000000, 0.000000, 0.000000, 0.000000, 492.800011, 1557626334.203471, 4.000000, 4.000000, 1.000000, 4.000000, 4.000000
99.000000, 0.000000, 4338.974121, 4447.692383, 4153.846191, 4129.743652, 4165.641113, 16175.000000, 8135.000000, 8348.000000, 0.000000, 0.000000, 0.000000, 0.000000, 500.800011, 1557626334.211471, 4.000000, 4.000000, 1.000000, 4.000000, 4.000000
100.000000, 0.000000, 4328.205078, 4447.692383, 4161.538574, 4128.205078, 4175.384277, 450.000000, 8137.000000, 8347.000000, 0.000000, 0.000000, 0.000000, 0.000000, 508.700012, 1557626334.219371, 4.000000, 4.000000, 1.000000, 4.000000, 4.000000
101.000000, 0.000000, 4325.127930, 4446.153809, 4160.000000, 4117.436035, 4166.666504, 450.000000, 8141.000000, 8343.000000, 0.000000, 0.000000, 0.000000, 0.000000, 516.700012, 1557626334.227371, 4.000000, 4.000000, 1.000000, 4.000000, 4.000000
102.000000, 0.000000, 4343.076660, 4440.512695, 4152.820313, 4128.205078, 4170.769043, 450.000000, 8139.000000, 8345.000000, 0.000000, 0.000000, 0.000000, 0.000000, 524.600014, 1557626334.235271, 4.000000, 4.000000, 1.000000, 4.000000, 4.000000
103.000000, 0.000000, 4358.461426, 4445.127930, 4156.922852, 4145.127930, 4192.820313, 16175.000000, 8142.000000, 8354.000000, 0.000000, 0.000000, 0.000000, 0.000000, 532.600006, 1557626334.243271, 4.000000, 4.000000, 1.000000, 4.000000, 4.000000
104.000000, 0.000000, 4348.205078, 4453.333008, 4151.794922, 4133.846191, 4185.127930, 450.000000, 8149.000000, 8348.000000, 0.000000, 0.000000, 0.000000, 0.000000, 540.500015, 1557626334.251171, 4.000000, 4.000000, 1.000000, 4.000000, 4.000000
105.000000, 0.000000, 4332.820313, 4447.179199, 4137.436035, 4115.897461, 4162.051270, 450.000000, 8146.000000, 8357.000000, 0.000000, 0.000000, 0.000000, 0.000000, 548.300018, 1557626334.258971, 4.000000, 4.000000, 1.000000, 4.000000, 4.000000
106.000000, 0.000000, 4337.436035, 4442.563965, 4146.666504, 4118.974121, 4164.102539, 450.000000, 8148.000000, 8362.000000, 0.000000, 0.000000, 0.000000, 0.000000, 556.200012, 1557626334.266871, 4.000000, 4.000000, 1.000000, 4.000000, 4.000000
107.000000, 0.000000, 4338.461426, 4451.794922, 4164.615234, 4130.256348, 4169.230469, 16175.000000, 8147.000000, 8351.000000, 0.000000, 0.000000, 0.000000, 0.000000, 564.000015, 1557626334.274671, 4.000000, 4.000000, 1.000000, 4.000000, 4.000000
108.000000, 0.000000, 4335.897461, 4460.000000, 4173.846191, 4138.461426, 4166.666504, 450.000000, 8153.000000, 8355.000000, 0.000000, 0.000000, 0.000000, 0.000000, 572.000015, 1557626334.282671, 4.000000, 4.000000, 1.000000, 4.000000, 4.000000
109.000000, 0.000000, 4353.846191, 4468.717773, 4177.436035, 4137.948730, 4176.410156, 450.000000, 8145.000000, 8365.000000, 0.000000, 0.000000, 0.000000, 0.000000, 579.900009, 1557626334.290571, 4.000000, 4.000000, 1.000000, 4.000000, 4.000000
110.000000, 0.000000, 4362.051270, 4475.897461, 4170.256348, 4137.436035, 4180.512695, 450.000000, 8148.000000, 8357.000000, 0.000000, 0.000000, 0.000000, 0.000000, 587.900009, 1557626334.298571, 4.000000, 4.000000, 1.000000, 4.000000, 4.000000
111.000000, 0.000000, 4345.127930, 4463.076660, 4158.461426, 4138.974121, 4165.127930, 16175.000000, 8139.000000, 8352.000000, 0.000000, 0.000000, 0.000000, 0.000000, 595.800018, 1557626334.306471, 4.000000, 4.000000, 1.000000, 4.000000, 4.000000
112.000000, 0.000000, 4340.000000, 4445.641113, 4157.948730, 4130.769043, 4164.102539, 450.000000, 8133.000000, 8353.000000, 0.000000, 0.000000, 0.000000, 0.000000, 603.800018, 1557626334.314471, 4.000000, 4.000000, 1.000000, 4.000000, 4.000000
113.000000, 0.000000, 4342.051270, 4443.589844, 4166.666504, 4127.692383, 4188.205078, 450.000000, 8126.000000, 8358.000000, 0.000000, 0.000000, 0.000000, 0.000000, 611.700012, 1557626334.322371, 4.000000, 4.000000, 1.000000, 4.000000, 4.000000
114.000000, 0.000000, 4341.538574, 4450.256348, 4168.717773, 4139.487305, 4194.358887, 450.000000, 8117.000000, 8356.000000, 0.000000, 0.000000, 0.000000, 0.000000, 619.500015, 1557626334.330171, 4.000000, 4.000000, 1.000000, 4.000000, 4.000000
115.000000, 0.000000, 4348.717773, 4457.435547, 4156.922852, 4134.358887, 4176.922852, 16175.000000, 8113.000000, 8361.000000, 0.000000, 0.000000, 0.000000, 0.000000, 627.500015, 1557626334.338171, 4.000000, 4.000000, 1.000000, 4.000000, 4.000000
116.000000, 0.000000, 4346.666504, 4461.025391, 4144.102539, 4120.512695, 4168.717773, 450.000000, 8113.000000, 8357.000000, 0.000000, 0.000000, 0.000000, 0.000000, 635.200012, 1557626334.345871, 4.000000, 4.000000, 1.000000, 4.000000, 4.000000
117.000000, 0.000000, 4341.025391, 4458.974121, 4151.794922, 4131.794922, 4167.692383, 450.000000, 8116.000000, 8353.000000, 0.000000, 0.000000, 0.000000, 0.000000, 643.200012, 1557626334.353871, 4.000000, 4.000000, 1.000000, 4.000000, 4.000000
118.000000, 0.000000, 4358.461426, 4463.589844, 4164.102539, 4142.563965, 4167.179199, 450.000000, 8115.000000, 8346.000000, 0.000000, 0.000000, 0.000000, 0.000000, 650.900009, 1557626334.361571, 4.000000, 4.000000, 1.000000, 4.000000, 4.000000
119.000000, 0.000000, 4368.205078, 4463.589844, 4158.461426, 4139.487305, 4170.256348, 16175.000000, 8106.000000, 8354.000000, 0.000000, 0.000000, 0.000000, 0.000000, 658.900024, 1557626334.369571, 4.000000, 4.000000, 1.000000, 4.000000, 4.000000
120.000000, 0.000000, 4354.871582, 4456.922852, 4157.948730, 4140.000000, 4171.794922, 450.000000, 8113.000000, 8344.000000, 0.000000, 0.000000, 0.000000, 0.000000, 666.800018, 1557626334.377471, 4.000000, 4.000000, 1.000000, 4.000000, 4.000000
121.000000, 0.000000, 4356.922852, 4469.230469, 4167.179199, 4147.179199, 4165.127930, 450.000000, 8121.000000, 8339.000000, 0.000000, 0.000000, 0.000000, 0.000000, 674.600006, 1557626334.385271, 4.000000, 4.000000, 1.000000, 4.000000, 4.000000
122.000000, 0.000000, 4362.563965, 4483.589844, 4167.179199, 4146.153809, 4167.692383, 450.000000, 8124.000000, 8341.000000, 0.000000, 0.000000, 0.000000, 0.000000, 682.300018, 1557626334.392971, 4.000000, 4.000000, 1.000000, 4.000000, 4.000000
123.000000, 0.000000, 4359.487305, 4480.000000, 4161.025391, 4144.102539, 4182.051270, 16175.000000, 8133.000000, 8344.000000, 0.000000, 0.000000, 0.000000, 0.000000, 690.300018, 1557626334.400971, 4.000000, 4.000000, 1.000000, 4.000000, 4.000000
124.000000, 0.000000, 4354.358887, 4474.871582, 4157.436035, 4146.666504, 4176.410156, 450.000000, 8133.000000, 8332.000000, 0.000000, 0.000000, 0.000000, 0.000000, 698.100006, 1557626334.408771, 4.000000, 4.000000, 1.000000, 4.000000, 4.000000
125.000000, 0.000000, 4345.641113, 4473.846191, 4167.692383, 4141.025391, 4175.897461, 450.000000, 8145.000000, 8332.000000, 0.000000, 0.000000, 0.000000, 0.000000, 706.000000, 1557626334.416671, 4.000000, 4.000000, 1.000000, 4.000000, 4.000000
126.000000, 0.000000, 4339.487305, 4471.281738, 4179.487305, 4141.538574, 4189.230469, 450.000000, 8146.000000, 8337.000000, 0.000000, 0.000000, 0.000000, 0.000000, 714.000000, 1557626334.424671, 4.000000, 4.000000, 1.000000, 4.000000, 4.000000
127.000000, 0.000000, 4347.179199, 4469.743652, 4178.461426, 4150.256348, 4187.692383, 16175.000000, 8152.000000, 8341.000000, 0.000000, 0.000000, 0.000000, 0.000000, 721.900024, 1557626334.432571, 4.000000, 4.000000, 1.000000, 4.000000, 4.000000
128.000000, 0.000000, 4366.666504, 4475.897461, 4176.922852, 4156.410156, 4193.333008, 500.000000, 8155.000000, 8346.000000, 0.000000, 0.000000, 0.000000, 0.000000, 729.900024, 1557626334.440571, 4.000000, 4.000000, 1.000000, 4.000000, 4.000000
0.000000, 0.000000, 4383.076660, 4485.641113, 4182.051270, 4162.563965, 4217.948730, 500.000000, 8147.000000, 8352.000000, 0.000000, 0.000000, 0.000000, 0.000000, 737.800018, 1557626334.448471, 4.000000, 4.000000, 1.000000, 4.000000, 4.000000
1.000000, 0.000000, 4388.717773, 4490.256348, 4188.205078, 4172.820313, 4224.615234, 500.000000, 8146.000000, 8353.000000, 0.000000, 0.000000, 0.000000, 0.000000, 745.600006, 1557626334.456271, 4.000000, 4.000000, 1.000000, 4.000000, 4.000000
2.000000, 0.000000, 4384.102539, 4492.820313, 4194.358887, 4173.846191, 4216.410156, 16186.000000, 8145.000000, 8347.000000, 0.000000, 0.000000, 0.000000, 0.000000, 753.300018, 1557626334.463971, 4.000000, 4.000000, 1.000000, 4.000000, 4.000000
3.000000, 0.000000, 4377.948730, 4503.589844, 4203.076660, 4169.743652, 4216.922852, 500.000000, 8135.000000, 8358.000000, 0.000000, 0.000000, 0.000000, 0.000000, 761.100006, 1557626334.471771, 4.000000, 4.000000, 1.000000, 4.000000, 4.000000
4.000000, 0.000000, 4387.692383, 4513.846191, 4197.436035, 4174.358887, 4198.974121, 16090.000000, 8144.000000, 8358.000000, 0.000000, 0.000000, 0.000000, 0.000000, 768.900024, 1557626334.479571, 4.000000, 4.000000, 1.000000, 4.000000, 4.000000
5.000000, 0.000000, 4399.487305, 4509.230469, 4173.333008, 4162.563965, 4182.051270, 500.000000, 8134.000000, 8351.000000, 0.000000, 0.000000, 0.000000, 0.000000, 776.800018, 1557626334.487471, 4.000000, 4.000000, 1.000000, 4.000000, 4.000000
6.000000, 0.000000, 4393.846191, 4500.000000, 4176.410156, 4149.230469, 4202.563965, 82.000000, 8132.000000, 8353.000000, 0.000000, 0.000000, 0.000000, 0.000000, 784.800018, 1557626334.495471, 4.000000, 4.000000, 1.000000, 4.000000, 4.000000
7.000000, 0.000000, 4390.769043, 4493.333008, 4198.461426, 4156.922852, 4226.153809, 500.000000, 8135.000000, 8360.000000, 0.000000, 0.000000, 0.000000, 0.000000, 792.700012, 1557626334.503371, 4.000000, 4.000000, 1.000000, 4.000000, 4.000000
8.000000, 0.000000, 4396.410156, 4490.256348, 4195.384277, 4159.487305, 4219.487305, 500.000000, 8138.000000, 8346.000000, 0.000000, 0.000000, 0.000000, 0.000000, 800.500000, 1557626334.511171, 4.000000, 4.000000, 1.000000, 4.000000, 4.000000
9.000000, 0.000000, 4393.333008, 4489.230469, 4180.000000, 4150.769043, 4201.025391, 288.000000, 8140.000000, 8340.000000, 0.000000, 0.000000, 0.000000, 0.000000, 808.200012, 1557626334.518871, 4.000000, 4.000000, 1.000000, 4.000000, 4.000000
10.000000, 0.000000, 4383.076660, 4489.743652, 4186.666504, 4152.307617, 4211.281738, 500.000000, 8145.000000, 8349.000000, 0.000000, 0.000000, 0.000000, 0.000000, 816.000000, 1557626334.526671, 4.000000, 4.000000, 1.000000, 4.000000, 4.000000
11.000000, 0.000000, 4377.435547, 4496.922852, 4195.384277, 4157.436035, 4220.512695, 16170.000000, 8144.000000, 8343.000000, 0.000000, 0.000000, 0.000000, 0.000000, 823.900024, 1557626334.534571, 4.000000, 4.000000, 1.000000, 4.000000, 4.000000
12.000000, 0.000000, 4374.871582, 4498.461426, 4186.153809, 4153.846191, 4195.384277, 500.000000, 8146.000000, 8336.000000, 0.000000, 0.000000, 0.000000, 0.000000, 831.800018, 1557626334.542471, 4.000000, 4.000000, 1.000000, 4.000000, 4.000000
13.000000, 0.000000, 4373.846191, 4495.897461, 4177.948730, 4148.205078, 4183.076660, 500.000000, 8158.000000, 8347.000000, 0.000000, 0.000000, 0.000000, 0.000000, 839.800018, 1557626334.550471, 4.000000, 4.000000, 1.000000, 4.000000, 4.000000
14.000000, 0.000000, 4373.846191, 4501.025391, 4177.948730, 4151.281738, 4201.538574, 450.000000, 8165.000000, 8344.000000, 0.000000, 0.000000, 0.000000, 0.000000, 847.700012, 1557626334.558371, 4.000000, 4.000000, 1.000000, 4.000000, 4.000000
15.000000, 0.000000, 4374.871582, 4501.538574, 4173.846191, 4158.461426, 4202.051270, 16170.000000, 8167.000000, 8354.000000, 0.000000, 0.000000, 0.000000, 0.000000, 855.700012, 1557626334.566371, 4.000000, 4.000000, 1.000000, 4.000000, 4.000000
16.000000, 0.000000, 4384.102539, 4488.205078, 4176.922852, 4153.333008, 4188.717773, 0.000000, 8168.000000, 8363.000000, 0.000000, 0.000000, 0.000000, 0.000000, 863.600006, 1557626334.574271, 4.000000, 4.000000, 1.000000, 4.000000, 4.000000
17.000000, 0.000000, 4394.358887, 4479.487305, 4187.179199, 4155.897461, 4194.871582, 0.000000, 8171.000000, 8359.000000, 0.000000, 0.000000, 0.000000, 0.000000, 871.400024, 1557626334.582071, 4.000000, 4.000000, 1.000000, 4.000000, 4.000000
18.000000, 0.000000, 4388.205078, 4471.281738, 4184.102539, 4165.127930, 4194.358887, 0.000000, 8175.000000, 8351.000000, 0.000000, 0.000000, 0.000000, 0.000000, 879.100006, 1557626334.589771, 4.000000, 4.000000, 1.000000, 4.000000, 4.000000
19.000000, 0.000000, 4382.051270, 4466.666504, 4181.538574, 4158.461426, 4192.307617, 0.000000, 8169.000000, 8352.000000, 0.000000, 0.000000, 0.000000, 0.000000, 887.000000, 1557626334.597671, 4.000000, 4.000000, 1.000000, 4.000000, 4.000000
20.000000, 0.000000, 4383.589844, 4473.333008, 4190.769043, 4152.307617, 4199.487305, 0.000000, 8164.000000, 8362.000000, 0.000000, 0.000000, 0.000000, 0.000000, 894.900024, 1557626334.605571, 4.000000, 4.000000, 1.000000, 4.000000, 4.000000
21.000000, 0.000000, 4381.538574, 4470.769043, 4188.717773, 4154.358887, 4186.153809, 0.000000, 8164.000000, 8350.000000, 0.000000, 0.000000, 0.000000, 0.000000, 902.900024, 1557626334.613571, 4.000000, 4.000000, 1.000000, 4.000000, 4.000000
22.000000, 0.000000, 4380.512695, 4471.794922, 4171.794922, 4147.692383, 4172.307617, 0.000000, 8167.000000, 8344.000000, 0.000000, 0.000000, 0.000000, 0.000000, 910.900024, 1557626334.621571, 4.000000, 4.000000, 1.000000, 4.000000, 4.000000
23.000000, 0.000000, 4379.487305, 4481.025391, 4169.743652, 4129.743652, 4186.153809, 0.000000, 8158.000000, 8352.000000, 0.000000, 0.000000, 0.000000, 0.000000, 918.799988, 1557626334.629471, 4.000000, 4.000000, 1.000000, 4.000000, 4.000000
24.000000, 0.000000, 4368.205078, 4468.205078, 4172.820313, 4123.589844, 4185.127930, 0.000000, 8161.000000, 8351.000000, 0.000000, 0.000000, 0.000000, 0.000000, 926.799988, 1557626334.637471, 4.000000, 4.000000, 1.000000, 4.000000, 4.000000
25.000000, 0.000000, 4363.589844, 4451.794922, 4164.615234, 4132.307617, 4173.333008, 0.000000, 8153.000000, 8349.000000, 0.000000, 0.000000, 0.000000, 0.000000, 934.700012, 1557626334.645371, 4.000000, 4.000000, 1.000000, 4.000000, 4.000000
26.000000, 0.000000, 4371.794922, 4466.153809, 4170.769043, 4137.436035, 4188.717773, 0.000000, 8152.000000, 8345.000000, 0.000000, 0.000000, 0.000000, 0.000000, 942.500000, 1557626334.653171, 4.000000, 4.000000, 1.000000, 4.000000, 4.000000
27.000000, 0.000000, 4369.743652, 4481.025391, 4173.333008, 4128.205078, 4190.769043, 0.000000, 8156.000000, 8341.000000, 0.000000, 0.000000, 0.000000, 0.000000, 950.200012, 1557626334.660871, 4.000000, 4.000000, 1.000000, 4.000000, 4.000000
28.000000, 0.000000, 4354.358887, 4461.025391, 4155.384277, 4116.922852, 4164.102539, 0.000000, 8164.000000, 8349.000000, 0.000000, 0.000000, 0.000000, 0.000000, 958.000000, 1557626334.668671, 4.000000, 4.000000, 1.000000, 4.000000, 4.000000
29.000000, 0.000000, 4336.922852, 4436.410156, 4148.717773, 4121.025391, 4159.487305, 0.000000, 8160.000000, 8355.000000, 0.000000, 0.000000, 0.000000, 0.000000, 965.799988, 1557626334.676471, 4.000000, 4.000000, 1.000000, 4.000000, 4.000000
30.000000, 0.000000, 4329.743652, 4437.435547, 4162.563965, 4124.615234, 4167.179199, 0.000000, 8158.000000, 8353.000000, 0.000000, 0.000000, 0.000000, 0.000000, 973.799988, 1557626334.684471, 4.000000, 4.000000, 1.000000, 4.000000, 4.000000
31.000000, 0.000000, 4342.051270, 4451.794922, 4171.281738, 4124.102539, 4155.897461, 0.000000, 8157.000000, 8344.000000, 0.000000, 0.000000, 0.000000, 0.000000, 981.799988, 1557626334.692471, 4.000000, 4.000000, 1.000000, 4.000000, 4.000000
32.000000, 0.000000, 4359.487305, 4463.589844, 4170.769043, 4125.127930, 4148.205078, 0.000000, 8143.000000, 8348.000000, 0.000000, 0.000000, 0.000000, 0.000000, 989.700012, 1557626334.700371, 4.000000, 4.000000, 1.000000, 4.000000, 4.000000
33.000000, 0.000000, 4358.974121, 4466.153809, 4166.666504, 4121.538574, 4165.127930, 0.000000, 8143.000000, 8359.000000, 0.000000, 0.000000, 0.000000, 0.000000, 997.700012, 1557626334.708371, 4.000000, 4.000000, 1.000000, 4.000000, 4.000000
34.000000, 0.000000, 4352.307617, 4461.538574, 4161.538574, 4125.641113, 4177.948730, 0.000000, 8147.000000, 8365.000000, 0.000000, 0.000000, 0.000000, 1.000000, 5.400024, 1557626334.716071, 4.000000, 4.000000, 1.000000, 4.000000, 4.000000
35.000000, 0.000000, 4350.256348, 4456.922852, 4163.076660, 4135.384277, 4163.589844, 0.000000, 8144.000000, 8351.000000, 0.000000, 0.000000, 0.000000, 1.000000, 13.200012, 1557626334.723871, 4.000000, 4.000000, 1.000000, 4.000000, 4.000000
36.000000, 0.000000, 4348.717773, 4452.307617, 4172.307617, 4138.974121, 4153.333008, 0.000000, 8136.000000, 8360.000000, 0.000000, 0.000000, 0.000000, 1.000000, 20.900024, 1557626334.731571, 4.000000, 4.000000, 1.000000, 4.000000, 4.000000
37.000000, 0.000000, 4355.897461, 4445.127930, 4173.333008, 4140.512695, 4162.563965, 0.000000, 8140.000000, 8358.000000, 0.000000, 0.000000, 0.000000, 1.000000, 28.900024, 1557626334.739571, 4.000000, 4.000000, 1.000000, 4.000000, 4.000000
38.000000, 0.000000, 4352.820313, 4443.589844, 4161.025391, 4134.358887, 4160.512695, 0.000000, 8143.000000, 8345.000000, 0.000000, 0.000000, 0.000000, 1.000000, 36.799988, 1557626334.747471, 4.000000, 4.000000, 1.000000, 4.000000, 4.000000
39.000000, 0.000000, 4326.153809, 4450.769043, 4154.358887, 4115.384277, 4148.717773, 0.000000, 8149.000000, 8346.000000, 0.000000, 0.000000, 0.000000, 1.000000, 44.799988, 1557626334.755471, 4.000000, 4.000000, 1.000000, 4.000000, 4.000000
40.000000, 0.000000, 4322.563965, 4447.692383, 4163.076660, 4109.230469, 4147.692383, 0.000000, 8150.000000, 8348.000000, 0.000000, 0.000000, 0.000000, 1.000000, 52.600037, 1557626334.763271, 4.000000, 4.000000, 1.000000, 4.000000, 4.000000
41.000000, 0.000000, 4351.794922, 4436.410156, 4167.692383, 4122.051270, 4154.358887, 0.000000, 8149.000000, 8347.000000, 0.000000, 0.000000, 0.000000, 1.000000, 60.500000, 1557626334.771171, 4.000000, 4.000000, 1.000000, 4.000000, 4.000000
42.000000, 0.000000, 4349.743652, 4428.717773, 4154.871582, 4114.358887, 4154.871582, 0.000000, 8146.000000, 8351.000000, 0.000000, 0.000000, 0.000000, 1.000000, 68.299988, 1557626334.778971, 4.000000, 4.000000, 1.000000, 4.000000, 4.000000
43.000000, 0.000000, 4318.461426, 4420.512695, 4144.102539, 4098.461426, 4152.307617, 0.000000, 8159.000000, 8356.000000, 0.000000, 0.000000, 0.000000, 1.000000, 76.000000, 1557626334.786671, 4.000000, 4.000000, 1.000000, 4.000000, 4.000000
44.000000, 0.000000, 4321.025391, 4429.743652, 4156.922852, 4099.487305, 4152.820313, 0.000000, 8166.000000, 8354.000000, 0.000000, 0.000000, 0.000000, 1.000000, 83.900024, 1557626334.794571, 4.000000, 4.000000, 1.000000, 4.000000, 4.000000
45.000000, 0.000000, 4333.846191, 4445.641113, 4157.436035, 4100.512695, 4145.641113, 0.000000, 8166.000000, 8351.000000, 0.000000, 0.000000, 0.000000, 1.000000, 91.799988, 1557626334.802471, 4.000000, 4.000000, 1.000000, 4.000000, 4.000000
46.000000, 0.000000, 4320.000000, 4433.333008, 4138.461426, 4090.256348, 4136.410156, 0.000000, 8164.000000, 8361.000000, 0.000000, 0.000000, 0.000000, 1.000000, 99.799988, 1557626334.810471, 4.000000, 4.000000, 1.000000, 4.000000, 4.000000
47.000000, 0.000000, 4311.794922, 4426.153809, 4143.589844, 4085.640869, 4146.153809, 0.000000, 8156.000000, 8362.000000, 0.000000, 0.000000, 0.000000, 1.000000, 107.700012, 1557626334.818371, 4.000000, 4.000000, 1.000000, 4.000000, 4.000000
48.000000, 0.000000, 4321.025391, 4445.641113, 4157.436035, 4097.436035, 4156.410156, 0.000000, 8162.000000, 8354.000000, 0.000000, 0.000000, 0.000000, 1.000000, 115.700012, 1557626334.826371, 4.000000, 4.000000, 1.000000, 4.000000, 4.000000
49.000000, 0.000000, 4322.051270, 4438.974121, 4146.666504, 4102.563965, 4136.410156, 0.000000, 8157.000000, 8349.000000, 0.000000, 0.000000, 0.000000, 1.000000, 123.700012, 1557626334.834371, 4.000000, 4.000000, 1.000000, 4.000000, 4.000000
50.000000, 0.000000, 4306.666504, 4411.794922, 4132.307617, 4090.256348, 4115.897461, 0.000000, 8160.000000, 8360.000000, 0.000000, 0.000000, 0.000000, 1.000000, 131.600037, 1557626334.842271, 4.000000, 4.000000, 1.000000, 4.000000, 4.000000
51.000000, 0.000000, 4302.563965, 4417.435547, 4131.794922, 4081.538330, 4119.487305, 0.000000, 8159.000000, 8348.000000, 0.000000, 0.000000, 0.000000, 1.000000, 139.400024, 1557626334.850071, 4.000000, 4.000000, 1.000000, 4.000000, 4.000000
52.000000, 0.000000, 4311.794922, 4440.512695, 4139.487305, 4083.589600, 4128.205078, 0.000000, 8154.000000, 8355.000000, 0.000000, 0.000000, 0.000000, 1.000000, 147.100037, 1557626334.857771, 4.000000, 4.000000, 1.000000, 4.000000, 4.000000
53.000000, 0.000000, 4302.563965, 4436.410156, 4138.974121, 4074.871582, 4127.179199, 0.000000, 8155.000000, 8352.000000, 0.000000, 0.000000, 0.000000, 1.000000, 154.900024, 1557626334.865571, 4.000000, 4.000000, 1.000000, 4.000000, 4.000000
54.000000, 0.000000, 4289.230469, 4418.974121, 4128.717773, 4061.025635, 4107.692383, 0.000000, 8157.000000, 8346.000000, 0.000000, 0.000000, 0.000000, 1.000000, 162.799988, 1557626334.873471, 4.000000, 4.000000, 1.000000, 4.000000, 4.000000
55.000000, 0.000000, 4291.281738, 4414.871582, 4124.615234, 4061.538330, 4093.333252, 0.000000, 8150.000000, 8349.000000, 0.000000, 0.000000, 0.000000, 1.000000, 170.799988, 1557626334.881471, 4.000000, 4.000000, 1.000000, 4.000000, 4.000000
56.000000, 0.000000, 4290.769043, 4421.538574, 4136.922852, 4064.102539, 4113.333008, 0.000000, 8149.000000, 8347.000000, 0.000000, 0.000000, 0.000000, 1.000000, 178.700012, 1557626334.889371, 4.000000, 4.000000, 1.000000, 4.000000, 4.000000
57.000000, 0.000000, 4277.436035, 4423.076660, 4145.641113, 4064.102539, 4129.230469, 0.000000, 8143.000000, 8341.000000, 0.000000, 0.000000, 0.000000, 1.000000, 186.700012, 1557626334.897371, 4.000000, 4.000000, 1.000000, 4.000000, 4.000000
58.000000, 0.000000, 4263.076660, 4412.820313, 4131.794922, 4060.512695, 4103.076660, 0.000000, 8142.000000, 8339.000000, 0.000000, 0.000000, 0.000000, 1.000000, 194.700012, 1557626334.905371, 4.000000, 4.000000, 1.000000, 4.000000, 4.000000
59.000000, 0.000000, 4261.538574, 4401.025391, 4112.307617, 4056.923096, 4078.974365, 0.000000, 8145.000000, 8346.000000, 0.000000, 0.000000, 0.000000, 1.000000, 202.400024, 1557626334.913071, 4.000000, 4.000000, 1.000000, 4.000000, 4.000000
60.000000, 0.000000, 4271.794922, 4397.948730, 4118.974121, 4062.563965, 4092.820313, 0.000000, 8148.000000, 8344.000000, 0.000000, 0.000000, 0.000000, 1.000000, 210.200012, 1557626334.920871, 4.000000, 4.000000, 1.000000, 4.000000, 4.000000
61.000000, 0.000000, 4272.307617, 4392.820313, 4133.333008, 4066.666504, 4104.615234, 0.000000, 8148.000000, 8335.000000, 0.000000, 0.000000, 0.000000, 1.000000, 217.900024, 1557626334.928571, 4.000000, 4.000000, 1.000000, 4.000000, 4.000000
62.000000, 0.000000, 4262.051270, 4385.641113, 4128.205078, 4056.923096, 4088.717773, 0.000000, 8150.000000, 8341.000000, 0.000000, 0.000000, 0.000000, 1.000000, 225.900024, 1557626334.936571, 4.000000, 4.000000, 1.000000, 4.000000, 4.000000
63.000000, 0.000000, 4262.563965, 4390.769043, 4117.436035, 4052.307617, 4070.769043, 0.000000, 8145.000000, 8347.000000, 0.000000, 0.000000, 0.000000, 1.000000, 233.799988, 1557626334.944471, 4.000000, 4.000000, 1.000000, 4.000000, 4.000000
64.000000, 0.000000, 4266.666504, 4398.974121, 4128.717773, 4064.102539, 4082.563965, 500.000000, 8151.000000, 8352.000000, 0.000000, 0.000000, 0.000000, 1.000000, 241.799988, 1557626334.952471, 4.000000, 4.000000, 1.000000, 4.000000, 4.000000
65.000000, 0.000000, 4261.025391, 4394.358887, 4137.436035, 4062.051270, 4103.589844, 500.000000, 8148.000000, 8345.000000, 0.000000, 0.000000, 0.000000, 1.000000, 249.700012, 1557626334.960371, 4.000000, 4.000000, 1.000000, 4.000000, 4.000000
66.000000, 0.000000, 4254.871582, 4379.487305, 4122.051270, 4045.128174, 4088.205078, 16187.000000, 8152.000000, 8349.000000, 0.000000, 0.000000, 0.000000, 1.000000, 257.700012, 1557626334.968371, 4.000000, 4.000000, 1.000000, 4.000000, 4.000000
67.000000, 0.000000, 4252.820313, 4369.230469, 4114.871582, 4041.538330, 4066.666504, 500.000000, 8156.000000, 8344.000000, 0.000000, 0.000000, 0.000000, 1.000000, 265.700012, 1557626334.976371, 4.000000, 4.000000, 1.000000, 4.000000, 4.000000
68.000000, 0.000000, 4246.666504, 4377.435547, 4123.589844, 4043.589600, 4082.563965, 16088.000000, 8156.000000, 8343.000000, 0.000000, 0.000000, 0.000000, 1.000000, 273.400024, 1557626334.984071, 4.000000, 4.000000, 1.000000, 4.000000, 4.000000
69.000000, 0.000000, 4230.256348, 4374.358887, 4121.025391, 4026.666504, 4084.102539, 500.000000, 8160.000000, 8344.000000, 0.000000, 0.000000, 0.000000, 1.000000, 281.200012, 1557626334.991871, 4.000000, 4.000000, 1.000000, 4.000000, 4.000000
70.000000, 0.000000, 4215.384277, 4354.871582, 4104.615234, 4007.692139, 4053.845947, 86.000000, 8166.000000, 8336.000000, 0.000000, 0.000000, 0.000000, 1.000000, 289.100037, 1557626334.999771, 4.000000, 4.000000, 1.000000, 4.000000, 4.000000
71.000000, 0.000000, 4222.051270, 4365.641113, 4100.512695, 4014.358887, 4055.384521, 500.000000, 8174.000000, 8331.000000, 0.000000, 0.000000, 0.000000, 1.000000, 297.000000, 1557626335.007671, 4.000000, 4.000000, 1.000000, 4.000000, 4.000000
72.000000, 0.000000, 4239.487305, 4387.692383, 4108.717773, 4035.384521, 4076.923096, 500.000000, 8171.000000, 8339.000000, 0.000000, 0.000000, 0.000000, 1.000000, 304.900024, 1557626335.015571, 4.000000, 4.000000, 1.000000, 4.000000, 4.000000
73.000000, 0.000000, 4240.512695, 4370.769043, 4105.127930, 4037.948730, 4071.794678, 301.000000, 8167.000000, 8337.000000, 0.000000, 0.000000, 0.000000, 1.000000, 312.900024, 1557626335.023571, 4.000000, 4.000000, 1.000000, 4.000000, 4.000000
74.000000, 0.000000, 4224.615234, 4352.307617, 4104.102539, 4027.179443, 4060.512695, 500.000000, 8173.000000, 8328.000000, 0.000000, 0.000000, 0.000000, 1.000000, 320.799988, 1557626335.031471, 4.000000, 4.000000, 1.000000, 4.000000, 4.000000
75.000000, 0.000000, 4216.410156, 4360.000000, 4110.256348, 4031.281982, 4061.538330, 16171.000000, 8178.000000, 8335.000000, 0.000000, 0.000000, 0.000000, 1.000000, 328.799988, 1557626335.039471, 4.000000, 4.000000, 1.000000, 4.000000, 4.000000
76.000000, 0.000000, 4221.025391, 4356.410156, 4104.102539, 4023.076904, 4054.871582, 500.000000, 8172.000000, 8340.000000, 0.000000, 0.000000, 0.000000, 1.000000, 336.799988, 1557626335.047471, 4.000000, 4.000000, 1.000000, 4.000000, 4.000000
77.000000, 0.000000, 4212.307617, 4336.410156, 4093.845947, 4005.640869, 4041.538330, 500.000000, 8168.000000, 8338.000000, 0.000000, 0.000000, 0.000000, 1.000000, 344.700012, 1557626335.055371, 4.000000, 4.000000, 1.000000, 4.000000, 4.000000
78.000000, 0.000000, 4194.871582, 4332.820313, 4093.845947, 4014.358887, 4045.640869, 450.000000, 8170.000000, 8330.000000, 0.000000, 0.000000, 0.000000, 1.000000, 352.700012, 1557626335.063371, 4.000000, 4.000000, 1.000000, 4.000000, 4.000000
79.000000, 0.000000, 4204.102539, 4349.230469, 4096.410156, 4022.051270, 4061.538330, 16171.000000, 8164.000000, 8334.000000, 0.000000, 0.000000, 0.000000, 1.000000, 360.400024, 1557626335.071071, 4.000000, 4.000000, 1.000000, 4.000000, 4.000000
80.000000, 0.000000, 4214.358887, 4347.179199, 4093.845947, 4007.692139, 4066.153809, 450.000000, 8165.000000, 8337.000000, 0.000000, 0.000000, 0.000000, 1.000000, 368.200012, 1557626335.078871, 4.000000, 4.000000, 1.000000, 4.000000, 4.000000
81.000000, 0.000000, 4190.769043, 4332.820313, 4084.102539, 3997.948730, 4053.333252, 450.000000, 8164.000000, 8333.000000, 0.000000, 0.000000, 0.000000, 1.000000, 375.900024, 1557626335.086571, 4.000000, 4.000000, 1.000000, 4.000000, 4.000000
82.000000, 0.000000, 4184.615234, 4351.794922, 4077.948730, 4006.153809, 4049.230713, 450.000000, 8163.000000, 8338.000000, 0.000000, 0.000000, 0.000000, 1.000000, 383.900024, 1557626335.094571, 4.000000, 4.000000, 1.000000, 4.000000, 4.000000
83.000000, 0.000000, 4215.897461, 4369.230469, 4086.666504, 4010.256348, 4062.051270, 16171.000000, 8153.000000, 8335.000000, 0.000000, 0.000000, 0.000000, 1.000000, 391.799988, 1557626335.102471, 4.000000, 4.000000, 1.000000, 4.000000, 4.000000
84.000000, 0.000000, 4218.461426, 4344.102539, 4091.281982, 4004.102539, 4061.025635, 450.000000, 8151.000000, 8333.000000, 0.000000, 0.000000, 0.000000, 1.000000, 399.600037, 1557626335.110271, 4.000000, 4.000000, 1.000000, 4.000000, 4.000000
85.000000, 0.000000, 4193.846191, 4331.281738, 4080.512695, 4002.563965, 4040.000000, 450.000000, 8149.000000, 8336.000000, 0.000000, 0.000000, 0.000000, 1.000000, 407.400012, 1557626335.118071, 4.000000, 4.000000, 1.000000, 4.000000, 4.000000
86.000000, 0.000000, 4195.897461, 4357.948730, 4078.461426, 4006.153809, 4035.384521, 450.000000, 8140.000000, 8348.000000, 0.000000, 0.000000, 0.000000, 1.000000, 415.300013, 1557626335.125971, 4.000000, 4.000000, 1.000000, 4.000000, 4.000000
87.000000, 0.000000, 4210.256348, 4363.076660, 4088.205078, 4005.640869, 4051.281982, 16171.000000, 8135.000000, 8344.000000, 0.000000, 0.000000, 0.000000, 1.000000, 423.300013, 1557626335.133971, 4.000000, 4.000000, 1.000000, 4.000000, 4.000000
88.000000, 0.000000, 4203.589844, 4341.025391, 4087.692139, 3998.461426, 4052.307617, 450.000000, 8136.000000, 8343.000000, 0.000000, 0.000000, 0.000000, 1.000000, 431.000011, 1557626335.141671, 4.000000, 4.000000, 1.000000, 4.000000, 4.000000
89.000000, 0.000000, 4201.538574, 4343.076660, 4084.615234, 4013.333252, 4050.769043, 450.000000, 8130.000000, 8357.000000, 0.000000, 0.000000, 0.000000, 1.000000, 438.900013, 1557626335.149571, 4.000000, 4.000000, 1.000000, 4.000000, 4.000000
90.000000, 0.000000, 4214.871582, 4368.717773, 4091.794678, 4029.230713, 4064.102539, 450.000000, 8130.000000, 8355.000000, 0.000000, 0.000000, 0.000000, 1.000000, 446.800011, 1557626335.157471, 4.000000, 4.000000, 1.000000, 4.000000, 4.000000
91.000000, 0.000000, 4207.692383, 4364.102539, 4087.179443, 4008.717773, 4056.410156, 16171.000000, 8130.000000, 8345.000000, 0.000000, 0.000000, 0.000000, 1.000000, 454.800011, 1557626335.165471, 4.000000, 4.000000, 1.000000, 4.000000, 4.000000
92.000000, 0.000000, 4186.666504, 4330.769043, 4072.820313, 3989.743408, 4025.640869, 450.000000, 8136.000000, 8343.000000, 0.000000, 0.000000, 0.000000, 1.000000, 462.500011, 1557626335.173171, 4.000000, 4.000000, 1.000000, 4.000000, 4.000000
93.000000, 0.000000, 4182.563965, 4333.333008, 4076.410156, 3995.384521, 4021.025635, 450.000000, 8135.000000, 8346.000000, 0.000000, 0.000000, 0.000000, 1.000000, 470.300011, 1557626335.180971, 4.000000, 4.000000, 1.000000, 4.000000, 4.000000
94.000000, 0.000000, 4192.820313, 4352.820313, 4084.102539, 3997.948730, 4040.000000, 450.000000, 8144.000000, 8341.000000, 0.000000, 0.000000, 0.000000, 1.000000, 478.100014, 1557626335.188771, 4.000000, 4.000000, 1.000000, 4.000000, 4.000000
95.000000, 0.000000, 4197.436035, 4345.641113, 4084.102539, 3994.871582, 4050.256348, 16171.000000, 8146.000000, 8342.000000, 0.000000, 0.000000, 0.000000, 1.000000, 486.000015, 1557626335.196671, 4.000000, 4.000000, 1.000000, 4.000000, 4.000000
96.000000, 0.000000, 4190.769043, 4334.358887, 4072.820313, 3995.384521, 4035.897217, 450.000000, 8153.000000, 8337.000000, 0.000000, 0.000000, 0.000000, 1.000000, 494.000015, 1557626335.204671, 4.000000, 4.000000, 1.000000, 4.000000, 4.000000
97.000000, 0.000000, 4183.076660, 4335.897461, 4069.230713, 3990.256348, 4018.974365, 450.000000, 8158.000000, 8341.000000, 0.000000, 0.000000, 0.000000, 1.000000, 501.900009, 1557626335.212571, 4.000000, 4.000000, 1.000000, 4.000000, 4.000000
98.000000, 0.000000, 4188.205078, 4354.358887, 4085.128174, 3988.717773, 4041.025635, 450.000000, 8155.000000, 8343.000000, 0.000000, 0.000000, 0.000000, 1.000000, 509.900009, 1557626335.220571, 4.000000, 4.000000, 1.000000, 4.000000, 4.000000
99.000000, 0.000000, 4195.384277, 4370.769043, 4090.256348, 3996.410156, 4064.102539, 16171.000000, 8149.000000, 8345.000000, 0.000000, 0.000000, 0.000000, 1.000000, 517.800011, 1557626335.228471, 4.000000, 4.000000, 1.000000, 4.000000, 4.000000
100.000000, 0.000000, 4190.769043, 4356.410156, 4078.974365, 4004.102539, 4040.512695, 450.000000, 8161.000000, 8335.000000, 0.000000, 0.000000, 0.000000, 1.000000, 525.600014, 1557626335.236271, 4.000000, 4.000000, 1.000000, 4.000000, 4.000000
101.000000, 0.000000, 4178.974121, 4338.461426, 4083.076904, 4003.589600, 4024.102539, 450.000000, 8157.000000, 8338.000000, 0.000000, 0.000000, 0.000000, 1.000000, 533.300018, 1557626335.243971, 4.000000, 4.000000, 1.000000, 4.000000, 4.000000
102.000000, 0.000000, 4173.333008, 4340.000000, 4089.743408, 3992.820313, 4034.871582, 450.000000, 8158.000000, 8350.000000, 0.000000, 0.000000, 0.000000, 1.000000, 541.100006, 1557626335.251771, 4.000000, 4.000000, 1.000000, 4.000000, 4.000000
103.000000, 0.000000, 4180.000000, 4331.281738, 4074.871582, 3987.179443, 4023.589600, 16171.000000, 8156.000000, 8343.000000, 0.000000, 0.000000, 0.000000, 1.000000, 548.900009, 1557626335.259571, 4.000000, 4.000000, 1.000000, 4.000000, 4.000000
104.000000, 0.000000, 4186.153809, 4325.641113, 4067.179443, 3993.333252, 4014.871582, 450.000000, 8158.000000, 8335.000000, 0.000000, 0.000000, 0.000000, 1.000000, 556.800018, 1557626335.267471, 4.000000, 4.000000, 1.000000, 4.000000, 4.000000
105.000000, 0.000000, 4173.846191, 4327.692383, 4067.179443, 3993.333252, 4017.948730, 450.000000, 8156.000000, 8334.000000, 0.000000, 0.000000, 0.000000, 1.000000, 564.800018, 1557626335.275471, 4.000000, 4.000000, 1.000000, 4.000000, 4.000000
106.000000, 0.000000, 4159.487305, 4320.000000, 4062.051270, 3987.179443, 4010.256348, 450.000000, 8152.000000, 8337.000000, 0.000000, 0.000000, 0.000000, 1.000000, 572.700012, 1557626335.283371, 4.000000, 4.000000, 1.000000, 4.000000, 4.000000
107.000000, 0.000000, 4170.256348, 4326.666504, 4072.307617, 3994.871582, 4024.615234, 16171.000000, 8154.000000, 8335.000000, 0.000000, 0.000000, 0.000000, 1.000000, 580.700012, 1557626335.291371, 4.000000, 4.000000, 1.000000, 4.000000, 4.000000
108.000000, 0.000000, 4188.717773, 4345.641113, 4082.051270, 3999.487061, 4048.205078, 450.000000, 8154.000000, 8335.000000, 0.000000, 0.000000, 0.000000, 1.000000, 588.600006, 1557626335.299271, 4.000000, 4.000000, 1.000000, 4.000000, 4.000000
109.000000, 0.000000, 4188.717773, 4350.256348, 4074.358887, 3989.230713, 4038.974365, 450.000000, 8155.000000, 8337.000000, 0.000000, 0.000000, 0.000000, 1.000000, 596.400009, 1557626335.307071, 4.000000, 4.000000, 1.000000, 4.000000, 4.000000
110.000000, 0.000000, 4180.000000, 4338.461426, 4077.435791, 3988.205078, 4029.230713, 450.000000, 8158.000000, 8339.000000, 0.000000, 0.000000, 0.000000, 1.000000, 604.100006, 1557626335.314771, 4.000000, 4.000000, 1.000000, 4.000000, 4.000000
111.000000, 0.000000, 4181.538574, 4324.102539, 4087.179443, 3995.897217, 4040.000000, 16171.000000, 8156.000000, 8340.000000, 0.000000, 0.000000, 0.000000, 1.000000, 611.900009, 1557626335.322571, 4.000000, 4.000000, 1.000000, 4.000000, 4.000000
112.000000, 0.000000, 4192.820313, 4327.179199, 4077.948730, 3995.384521, 4036.923096, 450.000000, 8154.000000, 8348.000000, 0.000000, 0.000000, 0.000000, 1.000000, 619.900009, 1557626335.330571, 4.000000, 4.000000, 1.000000, 4.000000, 4.000000
113.000000, 0.000000, 4203.076660, 4351.281738, 4076.410156, 3997.435791, 4027.179443, 450.000000, 8155.000000, 8335.000000, 0.000000, 0.000000, 0.000000, 1.000000, 627.800018, 1557626335.338471, 4.000000, 4.000000, 1.000000, 4.000000, 4.000000
114.000000, 0.000000, 4198.974121, 4343.076660, 4084.615234, 4014.358887, 4032.307617, 450.000000, 8156.000000, 8341.000000, 0.000000, 0.000000, 0.000000, 1.000000, 635.800018, 1557626335.346471, 4.000000, 4.000000, 1.000000, 4.000000, 4.000000
115.000000, 0.000000, 4185.641113, 4323.076660, 4077.948730, 4011.794678, 4037.435791, 16171.000000, 8151.000000, 8345.000000, 0.000000, 0.000000, 0.000000, 1.000000, 643.700012, 1557626335.354371, 4.000000, 4.000000, 1.000000, 4.000000, 4.000000
116.000000, 0.000000, 4183.589844, 4339.487305, 4070.256348, 4000.000000, 4031.794678, 450.000000, 8148.000000, 8350.000000, 0.000000, 0.000000, 0.000000, 1.000000, 651.700012, 1557626335.362371, 4.000000, 4.000000, 1.000000, 4.000000, 4.000000
117.000000, 0.000000, 4182.563965, 4352.307617, 4086.153809, 4009.743408, 4037.435791, 450.000000, 8154.000000, 8334.000000, 0.000000, 0.000000, 0.000000, 1.000000, 659.400024, 1557626335.370071, 4.000000, 4.000000, 1.000000, 4.000000, 4.000000
118.000000, 0.000000, 4174.871582, 4344.102539, 4097.948730, 4007.179443, 4051.794678, 450.000000, 8163.000000, 8334.000000, 0.000000, 0.000000, 0.000000, 1.000000, 667.200012, 1557626335.377871, 4.000000, 4.000000, 1.000000, 4.000000, 4.000000
119.000000, 0.000000, 4182.051270, 4338.461426, 4074.871582, 3995.897217, 4031.281982, 16171.000000, 8164.000000, 8347.000000, 0.000000, 0.000000, 0.000000, 1.000000, 674.900024, 1557626335.385571, 4.000000, 4.000000, 1.000000, 4.000000, 4.000000
120.000000, 0.000000, 4185.127930, 4325.641113, 4056.410156, 4001.538330, 3997.435791, 450.000000, 8176.000000, 8336.000000, 0.000000, 0.000000, 0.000000, 1.000000, 682.900024, 1557626335.393571, 4.000000, 4.000000, 1.000000, 4.000000, 4.000000
121.000000, 0.000000, 4171.281738, 4317.436035, 4068.205078, 3996.410156, 4004.102539, 450.000000, 8178.000000, 8329.000000, 0.000000, 0.000000, 0.000000, 1.000000, 690.900024, 1557626335.401571, 4.000000, 4.000000, 1.000000, 4.000000, 4.000000
122.000000, 0.000000, 4170.769043, 4332.307617, 4078.461426, 3974.871582, 4021.025635, 450.000000, 8180.000000, 8328.000000, 0.000000, 0.000000, 0.000000, 1.000000, 698.800018, 1557626335.409471, 4.000000, 4.000000, 1.000000, 4.000000, 4.000000
123.000000, 0.000000, 4172.820313, 4337.436035, 4062.563965, 3972.820313, 4001.025635, 16171.000000, 8190.000000, 8326.000000, 0.000000, 0.000000, 0.000000, 1.000000, 706.800018, 1557626335.417471, 4.000000, 4.000000, 1.000000, 4.000000, 4.000000
124.000000, 0.000000, 4153.333008, 4325.127930, 4049.230713, 3982.051270, 3985.128174, 450.000000, 8183.000000, 8325.000000, 0.000000, 0.000000, 0.000000, 1.000000, 714.700012, 1557626335.425371, 4.000000, 4.000000, 1.000000, 4.000000, 4.000000
125.000000, 0.000000, 4146.153809, 4330.769043, 4066.153809, 3983.589600, 4006.666504, 450.000000, 8172.000000, 8334.000000, 0.000000, 0.000000, 0.000000, 1.000000, 722.700012, 1557626335.433371, 4.000000, 4.000000, 1.000000, 4.000000, 4.000000
126.000000, 0.000000, 4167.179199, 4346.666504, 4079.487061, 3986.153809, 4020.000000, 450.000000, 8170.000000, 8323.000000, 0.000000, 0.000000, 0.000000, 1.000000, 730.400024, 1557626335.441071, 4.000000, 4.000000, 1.000000, 4.000000, 4.000000
127.000000, 0.000000, 4171.794922, 4343.076660, 4071.281982, 3992.820313, 4013.333252, 16171.000000, 8157.000000, 8329.000000, 0.000000, 0.000000, 0.000000, 1.000000, 738.200012, 1557626335.448871, 4.000000, 4.000000, 1.000000, 4.000000, 4.000000
128.000000, 0.000000, 4151.281738, 4323.076660, 4065.128174, 3997.435791, 4018.461426, 500.000000, 8145.000000, 8336.000000, 0.000000, 0.000000, 0.000000, 1.000000, 746.100006, 1557626335.456771, 4.000000, 4.000000, 1.000000, 4.000000, 4.000000
0.000000, 0.000000, 4153.333008, 4307.692383, 4060.000000, 4000.000000, 4019.487061, 500.000000, 8122.000000, 8344.000000, 0.000000, 0.000000, 0.000000, 1.000000, 753.900024, 1557626335.464571, 4.000000, 4.000000, 1.000000, 4.000000, 4.000000
1.000000, 0.000000, 4176.410156, 4314.358887, 4052.820313, 3998.974365, 4006.666504, 500.000000, 8121.000000, 8341.000000, 0.000000, 0.000000, 0.000000, 1.000000, 761.900024, 1557626335.472571, 4.000000, 4.000000, 1.000000, 4.000000, 4.000000
2.000000, 0.000000, 4191.281738, 4344.615234, 4064.102539, 4006.666504, 4017.435791, 16188.000000, 8099.000000, 8340.000000, 0.000000, 0.000000, 0.000000, 1.000000, 769.800018, 1557626335.480471, 4.000000, 4.000000, 1.000000, 4.000000, 4.000000
3.000000, 0.000000, 4202.051270, 4368.717773, 4079.487061, 4032.820313, 4045.128174, 500.000000, 8089.000000, 8352.000000, 0.000000, 0.000000, 0.000000, 1.000000, 777.800018, 1557626335.488471, 4.000000, 4.000000, 1.000000, 4.000000, 4.000000
4.000000, 0.000000, 4202.051270, 4353.333008, 4067.179443, 4036.923096, 4041.025635, 16105.000000, 8087.000000, 8354.000000, 0.000000, 0.000000, 0.000000, 1.000000, 785.700012, 1557626335.496371, 4.000000, 4.000000, 1.000000, 4.000000, 4.000000
5.000000, 0.000000, 4177.948730, 4314.871582, 4040.512695, 4005.640869, 4007.179443, 500.000000, 8081.000000, 8348.000000, 0.000000, 0.000000, 0.000000, 1.000000, 793.500000, 1557626335.504171, 4.000000, 4.000000, 1.000000, 4.000000, 4.000000
6.000000, 0.000000, 4159.487305, 4303.589844, 4046.153809, 3989.743408, 3992.820313, 82.000000, 8088.000000, 8349.000000, 0.000000, 0.000000, 0.000000, 1.000000, 801.200012, 1557626335.511871, 4.000000, 4.000000, 1.000000, 4.000000, 4.000000
7.000000, 0.000000, 4173.846191, 4319.487305, 4069.230713, 4004.102539, 4001.538330, 500.000000, 8097.000000, 8347.000000, 0.000000, 0.000000, 0.000000, 1.000000, 809.000000, 1557626335.519671, 4.000000, 4.000000, 1.000000, 4.000000, 4.000000
8.000000, 0.000000, 4180.512695, 4318.461426, 4069.743408, 4004.615234, 4003.589600, 500.000000, 8106.000000, 8339.000000, 0.000000, 0.000000, 0.000000, 1.000000, 817.000000, 1557626335.527671, 4.000000, 4.000000, 1.000000, 4.000000, 4.000000
9.000000, 0.000000, 4169.230469, 4315.384277, 4069.230713, 4003.589600, 4007.179443, 291.000000, 8107.000000, 8347.000000, 0.000000, 0.000000, 0.000000, 1.000000, 824.900024, 1557626335.535571, 4.000000, 4.000000, 1.000000, 4.000000, 4.000000
10.000000, 0.000000, 4176.922852, 4332.820313, 4082.051270, 4020.000000, 4027.179443, 500.000000, 8129.000000, 8342.000000, 0.000000, 0.000000, 0.000000, 1.000000, 832.900024, 1557626335.543571, 4.000000, 4.000000, 1.000000, 4.000000, 4.000000
11.000000, 0.000000, 4186.153809, 4341.538574, 4084.102539, 4016.923096, 4031.281982, 16173.000000, 8143.000000, 8329.000000, 0.000000, 0.000000, 0.000000, 1.000000, 840.800018, 1557626335.551471, 4.000000, 4.000000, 1.000000, 4.000000, 4.000000
12.000000, 0.000000, 4176.410156, 4341.025391, 4080.000000, 4000.000000, 4019.487061, 500.000000, 8147.000000, 8336.000000, 0.000000, 0.000000, 0.000000, 1.000000, 848.800018, 1557626335.559471, 4.000000, 4.000000, 1.000000, 4.000000, 4.000000
13.000000, 0.000000, 4175.897461, 4340.512695, 4081.025635, 3998.461426, 4018.461426, 500.000000, 8169.000000, 8341.000000, 0.000000, 0.000000, 0.000000, 1.000000, 856.700012, 1557626335.567371, 4.000000, 4.000000, 1.000000, 4.000000, 4.000000
14.000000, 0.000000, 4189.230469, 4329.230469, 4083.589600, 4003.589600, 4023.589600, 450.000000, 8179.000000, 8334.000000, 0.000000, 0.000000, 0.000000, 1.000000, 864.500000, 1557626335.575171, 4.000000, 4.000000, 1.000000, 4.000000, 4.000000
15.000000, 0.000000, 4182.051270, 4323.076660, 4086.153809, 4002.051270, 4026.153809, 16173.000000, 8182.000000, 8333.000000, 0.000000, 0.000000, 0.000000, 1.000000, 872.200012, 1557626335.582871, 4.000000, 4.000000, 1.000000, 4.000000, 4.000000
16.000000, 0.000000, 4183.076660, 4338.461426, 4083.076904, 4010.769043, 4021.538330, 0.000000, 8184.000000, 8340.000000, 0.000000, 0.000000, 0.000000, 1.000000, 880.000000, 1557626335.590671, 4.000000, 4.000000, 1.000000, 4.000000, 4.000000
17.000000, 0.000000, 4198.974121, 4335.384277, 4074.358887, 4011.794678, 4007.179443, 0.000000, 8195.000000, 8352.000000, 0.000000, 0.000000, 0.000000, 1.000000, 888.000000, 1557626335.598671, 4.000000, 4.000000, 1.000000, 4.000000, 4.000000
18.000000, 0.000000, 4183.589844, 4316.410156, 4067.692139, 3997.435791, 4002.051270, 0.000000, 8193.000000, 8341.000000, 0.000000, 0.000000, 0.000000, 1.000000, 895.900024, 1557626335.606571, 4.000000, 4.000000, 1.000000, 4.000000, 4.000000
19.000000, 0.000000, 4171.794922, 4323.589844, 4064.615234, 3992.820313, 4008.205078, 0.000000, 8189.000000, 8344.000000, 0.000000, 0.000000, 0.000000, 1.000000, 903.900024, 1557626335.614571, 4.000000, 4.000000, 1.000000, 4.000000, 4.000000
20.000000, 0.000000, 4190.256348, 4340.512695, 4053.333252, 3987.692139, 4008.205078, 0.000000, 8187.000000, 8350.000000, 0.000000, 0.000000, 0.000000, 1.000000, 911.799988, 1557626335.622471, 4.000000, 4.000000, 1.000000, 4.000000, 4.000000
21.000000, 0.000000, 4187.179199, 4339.487305, 4043.076904, 3973.333252, 4002.051270, 0.000000, 8171.000000, 8350.000000, 0.000000, 0.000000, 0.000000, 1.000000, 919.799988, 1557626335.630471, 4.000000, 4.000000, 1.000000, 4.000000, 4.000000
22.000000, 0.000000, 4173.846191, 4329.230469, 4048.205078, 3976.410156, 4000.000000, 0.000000, 8167.000000, 8348.000000, 0.000000, 0.000000, 0.000000, 1.000000, 927.500000, 1557626335.638171, 4.000000, 4.000000, 1.000000, 4.000000, 4.000000
23.000000, 0.000000, 4187.179199, 4324.102539, 4060.000000, 4002.051270, 4014.871582, 0.000000, 8145.000000, 8358.000000, 0.000000, 0.000000, 0.000000, 1.000000, 935.299988, 1557626335.645971, 4.000000, 4.000000, 1.000000, 4.000000, 4.000000
24.000000, 0.000000, 4182.563965, 4309.743652, 4059.487061, 3998.461426, 4023.589600, 0.000000, 8145.000000, 8350.000000, 0.000000, 0.000000, 0.000000, 1.000000, 943.000000, 1557626335.653671, 4.000000, 4.000000, 1.000000, 4.000000, 4.000000
25.000000, 0.000000, 4154.871582, 4295.897461, 4041.538330, 3976.410156, 3997.435791, 0.000000, 8119.000000, 8343.000000, 0.000000, 0.000000, 0.000000, 1.000000, 950.900024, 1557626335.661571, 4.000000, 4.000000, 1.000000, 4.000000, 4.000000
26.000000, 0.000000, 4150.256348, 4303.076660, 4034.358887, 3974.358887, 3983.589600, 0.000000, 8113.000000, 8359.000000, 0.000000, 0.000000, 0.000000, 1.000000, 958.900024, 1557626335.669571, 4.000000, 4.000000, 1.000000, 4.000000, 4.000000
27.000000, 0.000000, 4144.615234, 4303.589844, 4050.256348, 3980.000000, 4004.102539, 0.000000, 8109.000000, 8357.000000, 0.000000, 0.000000, 0.000000, 1.000000, 966.799988, 1557626335.677471, 4.000000, 4.000000, 1.000000, 4.000000, 4.000000
28.000000, 0.000000, 4132.307617, 4289.230469, 4058.461426, 3987.179443, 3999.487061, 0.000000, 8102.000000, 8345.000000, 0.000000, 0.000000, 0.000000, 1.000000, 974.799988, 1557626335.685471, 4.000000, 4.000000, 1.000000, 4.000000, 4.000000
29.000000, 0.000000, 4137.948730, 4290.769043, 4049.743408, 3989.743408, 3972.307617, 0.000000, 8102.000000, 8353.000000, 0.000000, 0.000000, 0.000000, 1.000000, 982.700012, 1557626335.693371, 4.000000, 4.000000, 1.000000, 4.000000, 4.000000
30.000000, 0.000000, 4135.897461, 4297.948730, 4038.461426, 3969.230713, 3969.743408, 0.000000, 8108.000000, 8351.000000, 0.000000, 0.000000, 0.000000, 1.000000, 990.700012, 1557626335.701371, 4.000000, 4.000000, 1.000000, 4.000000, 4.000000
31.000000, 0.000000, 4121.025391, 4283.076660, 4034.871582, 3950.769043, 3978.461426, 0.000000, 8115.000000, 8340.000000, 0.000000, 0.000000, 0.000000, 1.000000, 998.400024, 1557626335.709071, 4.000000, 4.000000, 1.000000, 4.000000, 4.000000
32.000000, 0.000000, 4121.538574, 4272.307617, 4034.358887, 3964.102539, 3972.820313, 0.000000, 8129.000000, 8339.000000, 0.000000, 0.000000, 0.000000, 2.000000, 6.200012, 1557626335.716871, 4.000000, 4.000000, 1.000000, 4.000000, 4.000000
33.000000, 0.000000, 4118.461426, 4277.436035, 4030.256348, 3968.717773, 3965.128174, 0.000000, 8137.000000, 8346.000000, 0.000000, 0.000000, 0.000000, 2.000000, 13.900024, 1557626335.724571, 4.000000, 4.000000, 1.000000, 4.000000, 4.000000
34.000000, 0.000000, 4104.615234, 4278.974121, 4027.692139, 3945.128174, 3959.487061, 0.000000, 8147.000000, 8345.000000, 0.000000, 0.000000, 0.000000, 2.000000, 21.900024, 1557626335.732571, 4.000000, 4.000000, 1.000000, 4.000000, 4.000000
35.000000, 0.000000, 4097.436035, 4280.000000, 4026.153809, 3927.179443, 3947.179443, 0.000000, 8152.000000, 8339.000000, 0.000000, 0.000000, 0.000000, 2.000000, 29.900024, 1557626335.740571, 4.000000, 4.000000, 1.000000, 4.000000, 4.000000
36.000000, 0.000000, 4093.333252, 4275.384277, 4024.102539, 3927.179443, 3938.461426, 0.000000, 8164.000000, 8342.000000, 0.000000, 0.000000, 0.000000, 2.000000, 37.799988, 1557626335.748471, 4.000000, 4.000000, 1.000000, 4.000000, 4.000000
37.000000, 0.000000, 4083.076904, 4266.153809, 4029.743408, 3928.205078, 3942.563965, 0.000000, 8170.000000, 8337.000000, 0.000000, 0.000000, 0.000000, 2.000000, 45.799988, 1557626335.756471, 4.000000, 4.000000, 1.000000, 4.000000, 4.000000
38.000000, 0.000000, 4068.717773, 4255.384277, 4027.692139, 3914.358887, 3943.589600, 0.000000, 8179.000000, 8341.000000, 0.000000, 0.000000, 0.000000, 2.000000, 53.500000, 1557626335.764171, 4.000000, 4.000000, 1.000000, 4.000000, 4.000000
39.000000, 0.000000, 4062.563965, 4245.127930, 4010.256348, 3906.153809, 3930.256348, 0.000000, 8177.000000, 8345.000000, 0.000000, 0.000000, 0.000000, 2.000000, 61.299988, 1557626335.771971, 4.000000, 4.000000, 1.000000, 4.000000, 4.000000
40.000000, 0.000000, 4067.692139, 4244.102539, 4003.076904, 3916.410156, 3919.487061, 0.000000, 8179.000000, 8352.000000, 0.000000, 0.000000, 0.000000, 2.000000, 69.200012, 1557626335.779871, 4.000000, 4.000000, 1.000000, 4.000000, 4.000000
41.000000, 0.000000, 4063.076904, 4243.589844, 4012.820313, 3910.769043, 3924.615234, 0.000000, 8186.000000, 8339.000000, 0.000000, 0.000000, 0.000000, 2.000000, 77.000000, 1557626335.787671, 4.000000, 4.000000, 1.000000, 4.000000, 4.000000
42.000000, 0.000000, 4050.769043, 4234.358887, 4006.153809, 3895.384521, 3921.025635, 0.000000, 8182.000000, 8340.000000, 0.000000, 0.000000, 0.000000, 2.000000, 84.900024, 1557626335.795571, 4.000000, 4.000000, 1.000000, 4.000000, 4.000000
43.000000, 0.000000, 4061.025635, 4235.384277, 3983.076904, 3905.640869, 3903.076904, 0.000000, 8186.000000, 8357.000000, 0.000000, 0.000000, 0.000000, 2.000000, 92.799988, 1557626335.803471, 4.000000, 4.000000, 1.000000, 4.000000, 4.000000
44.000000, 0.000000, 4071.794678, 4251.794922, 3992.307617, 3914.871582, 3911.794678, 0.000000, 8185.000000, 8345.000000, 0.000000, 0.000000, 0.000000, 2.000000, 100.799988, 1557626335.811471, 4.000000, 4.000000, 1.000000, 4.000000, 4.000000
45.000000, 0.000000, 4062.563965, 4251.281738, 4021.538330, 3913.845947, 3949.230713, 0.000000, 8191.000000, 8343.000000, 0.000000, 0.000000, 0.000000, 2.000000, 108.500000, 1557626335.819171, 4.000000, 4.000000, 1.000000, 4.000000, 4.000000
46.000000, 0.000000, 4050.256348, 4226.153809, 4007.179443, 3914.358887, 3940.512695, 0.000000, 8195.000000, 8346.000000, 0.000000, 0.000000, 0.000000, 2.000000, 116.299988, 1557626335.826971, 4.000000, 4.000000, 1.000000, 4.000000, 4.000000
47.000000, 0.000000, 4043.589600, 4212.307617, 3979.487061, 3898.974365, 3890.769043, 0.000000, 8194.000000, 8344.000000, 0.000000, 0.000000, 0.000000, 2.000000, 124.000000, 1557626335.834671, 4.000000, 4.000000, 1.000000, 4.000000, 4.000000
48.000000, 0.000000, 4039.487061, 4213.846191, 3978.974365, 3877.948730, 3872.307617, 0.000000, 8189.000000, 8342.000000, 0.000000, 0.000000, 0.000000, 2.000000, 131.900024, 1557626335.842571, 4.000000, 4.000000, 1.000000, 4.000000, 4.000000
49.000000, 0.000000, 4023.076904, 4216.922852, 3983.589600, 3872.307617, 3877.435791, 0.000000, 8185.000000, 8341.000000, 0.000000, 0.000000, 0.000000, 2.000000, 139.799988, 1557626335.850471, 4.000000, 4.000000, 1.000000, 4.000000, 4.000000
50.000000, 0.000000, 4008.717773, 4221.025391, 3983.589600, 3876.410156, 3881.538330, 0.000000, 8188.000000, 8337.000000, 0.000000, 0.000000, 0.000000, 2.000000, 147.799988, 1557626335.858471, 4.000000, 4.000000, 1.000000, 4.000000, 4.000000
51.000000, 0.000000, 4017.948730, 4217.948730, 3978.974365, 3882.051270, 3883.076904, 0.000000, 8174.000000, 8347.000000, 0.000000, 0.000000, 0.000000, 2.000000, 155.799988, 1557626335.866471, 4.000000, 4.000000, 1.000000, 4.000000, 4.000000
52.000000, 0.000000, 4015.897217, 4206.153809, 3962.563965, 3877.948730, 3865.640869, 0.000000, 8159.000000, 8353.000000, 0.000000, 0.000000, 0.000000, 2.000000, 163.700012, 1557626335.874371, 4.000000, 4.000000, 1.000000, 4.000000, 4.000000
53.000000, 0.000000, 4011.794678, 4214.871582, 3961.025635, 3883.076904, 3872.307617, 0.000000, 8160.000000, 8353.000000, 0.000000, 0.000000, 0.000000, 2.000000, 171.700012, 1557626335.882371, 4.000000, 4.000000, 1.000000, 4.000000, 4.000000
54.000000, 0.000000, 4043.076904, 4242.051270, 3984.102539, 3899.487061, 3914.871582, 0.000000, 8153.000000, 8342.000000, 0.000000, 0.000000, 0.000000, 2.000000, 179.600037, 1557626335.890271, 4.000000, 4.000000, 1.000000, 4.000000, 4.000000
55.000000, 0.000000, 4054.871582, 4234.871582, 3986.153809, 3883.589600, 3914.871582, 0.000000, 8145.000000, 8346.000000, 0.000000, 0.000000, 0.000000, 2.000000, 187.400024, 1557626335.898071, 4.000000, 4.000000, 1.000000, 4.000000, 4.000000
56.000000, 0.000000, 4010.256348, 4206.666504, 3967.179443, 3847.692139, 3872.820313, 0.000000, 8137.000000, 8358.000000, 0.000000, 0.000000, 0.000000, 2.000000, 195.100037, 1557626335.905771, 4.000000, 4.000000, 1.000000, 4.000000, 4.000000
57.000000, 0.000000, 3962.563965, 4186.666504, 3961.025635, 3833.333252, 3861.538330, 0.000000, 8134.000000, 8363.000000, 0.000000, 0.000000, 0.000000, 2.000000, 203.000000, 1557626335.913671, 4.000000, 4.000000, 1.000000, 4.000000, 4.000000
58.000000, 0.000000, 3945.128174, 4161.025391, 3954.358887, 3826.153809, 3858.974365, 0.000000, 8130.000000, 8353.000000, 0.000000, 0.000000, 0.000000, 2.000000, 210.900024, 1557626335.921571, 4.000000, 4.000000, 1.000000, 4.000000, 4.000000
59.000000, 0.000000, 3954.358887, 4149.743652, 3949.230713, 3828.717773, 3838.461426, 0.000000, 8123.000000, 8355.000000, 0.000000, 0.000000, 0.000000, 2.000000, 218.900024, 1557626335.929571, 4.000000, 4.000000, 1.000000, 4.000000, 4.000000
60.000000, 0.000000, 3983.076904, 4177.436035, 3965.128174, 3857.948730, 3846.666504, 0.000000, 8123.000000, 8357.000000, 0.000000, 0.000000, 0.000000, 2.000000, 226.900024, 1557626335.937571, 4.000000, 4.000000, 1.000000, 4.000000, 4.000000
61.000000, 0.000000, 3989.230713, 4186.666504, 3973.845947, 3864.615234, 3864.615234, 0.000000, 8126.000000, 8349.000000, 0.000000, 0.000000, 0.000000, 2.000000, 234.799988, 1557626335.945471, 4.000000, 4.000000, 1.000000, 4.000000, 4.000000
62.000000, 0.000000, 3974.871582, 4164.102539, 3962.563965, 3840.000000, 3857.435791, 0.000000, 8131.000000, 8352.000000, 0.000000, 0.000000, 0.000000, 2.000000, 242.799988, 1557626335.953471, 4.000000, 4.000000, 1.000000, 4.000000, 4.000000
63.000000, 0.000000, 3970.769043, 4170.256348, 3965.640869, 3850.256348, 3866.153809, 0.000000, 8140.000000, 8351.000000, 0.000000, 0.000000, 0.000000, 2.000000, 250.700012, 1557626335.961371, 4.000000, 4.000000, 1.000000, 4.000000, 4.000000
64.000000, 0.000000, 3975.384521, 4191.794922, 3984.102539, 3882.051270, 3888.205078, 500.000000, 8145.000000, 8342.000000, 0.000000, 0.000000, 0.000000, 2.000000, 258.500000, 1557626335.969171, 4.000000, 4.000000, 1.000000, 4.000000, 4.000000
65.000000, 0.000000, 3984.615234, 4189.230469, 3977.948730, 3868.205078, 3872.820313, 500.000000, 8139.000000, 8347.000000, 0.000000, 0.000000, 0.000000, 2.000000, 266.200012, 1557626335.976871, 4.000000, 4.000000, 1.000000, 4.000000, 4.000000
66.000000, 0.000000, 3983.589600, 4183.076660, 3960.000000, 3831.794678, 3854.871582, 16188.000000, 8144.000000, 8348.000000, 0.000000, 0.000000, 0.000000, 2.000000, 274.000000, 1557626335.984671, 4.000000, 4.000000, 1.000000, 4.000000, 4.000000
67.000000, 0.000000, 3971.794678, 4176.922852, 3963.589600, 3828.717773, 3867.692139, 500.000000, 8151.000000, 8345.000000, 0.000000, 0.000000, 0.000000, 2.000000, 281.799988, 1557626335.992471, 4.000000, 4.000000, 1.000000, 4.000000, 4.000000
68.000000, 0.000000, 3967.692139, 4161.025391, 3961.538330, 3831.794678, 3853.845947, 16104.000000, 8144.000000, 8345.000000, 0.000000, 0.000000, 0.000000, 2.000000, 289.799988, 1557626336.000471, 4.000000, 4.000000, 1.000000, 4.000000, 4.000000
69.000000, 0.000000, 3976.410156, 4151.794922, 3951.281982, 3828.717773, 3829.230713, 500.000000, 8145.000000, 8351.000000, 0.000000, 0.000000, 0.000000, 2.000000, 297.799988, 1557626336.008471, 4.000000, 4.000000, 1.000000, 4.000000, 4.000000
70.000000, 0.000000, 3978.461426, 4151.794922, 3955.897461, 3838.461426, 3838.461426, 88.000000, 8148.000000, 8352.000000, 0.000000, 0.000000, 0.000000, 2.000000, 305.700012, 1557626336.016371, 4.000000, 4.000000, 1.000000, 4.000000, 4.000000
71.000000, 0.000000, 3963.589600, 4161.538574, 3948.717773, 3834.871582, 3835.384521, 500.000000, 8149.000000, 8342.000000, 0.000000, 0.000000, 0.000000, 2.000000, 313.700012, 1557626336.024371, 4.000000, 4.000000, 1.000000, 4.000000, 4.000000
72.000000, 0.000000, 3952.307617, 4171.281738, 3942.563965, 3829.230713, 3824.615234, 500.000000, 8152.000000, 8344.000000, 0.000000, 0.000000, 0.000000, 2.000000, 321.600037, 1557626336.032271, 4.000000, 4.000000, 1.000000, 4.000000, 4.000000
73.000000, 0.000000, 3961.538330, 4156.922852, 3960.000000, 3847.692139, 3845.128174, 297.000000, 8152.000000, 8350.000000, 0.000000, 0.000000, 0.000000, 2.000000, 329.400024, 1557626336.040071, 4.000000, 4.000000, 1.000000, 4.000000, 4.000000
74.000000, 0.000000, 3980.000000, 4147.179199, 3967.179443, 3852.820313, 3860.000000, 500.000000, 8155.000000, 8352.000000, 0.000000, 0.000000, 0.000000, 2.000000, 337.100037, 1557626336.047771, 4.000000, 4.000000, 1.000000, 4.000000, 4.000000
75.000000, 0.000000, 3987.179443, 4164.615234, 3956.923096, 3842.051270, 3844.615234, 16184.000000, 8148.000000, 8356.000000, 0.000000, 0.000000, 0.000000, 2.000000, 344.900024, 1557626336.055571, 4.000000, 4.000000, 1.000000, 4.000000, 4.000000
76.000000, 0.000000, 3986.666504, 4172.307617, 3961.538330, 3842.051270, 3839.487061, 500.000000, 8145.000000, 8361.000000, 0.000000, 0.000000, 0.000000, 2.000000, 352.799988, 1557626336.063471, 4.000000, 4.000000, 1.000000, 4.000000, 4.000000
77.000000, 0.000000, 3986.153809, 4169.230469, 3968.717773, 3848.717773, 3858.974365, 500.000000, 8155.000000, 8357.000000, 0.000000, 0.000000, 0.000000, 2.000000, 360.799988, 1557626336.071471, 4.000000, 4.000000, 1.000000, 4.000000, 4.000000
78.000000, 0.000000, 3988.717773, 4187.179199, 3960.000000, 3858.461426, 3866.666504, 450.000000, 8143.000000, 8360.000000, 0.000000, 0.000000, 0.000000, 2.000000, 368.799988, 1557626336.079471, 4.000000, 4.000000, 1.000000, 4.000000, 4.000000
79.000000, 0.000000, 3990.769043, 4188.205078, 3949.230713, 3853.845947, 3842.051270, 16184.000000, 8141.000000, 8370.000000, 0.000000, 0.000000, 0.000000, 2.000000, 376.500000, 1557626336.087171, 4.000000, 4.000000, 1.000000, 4.000000, 4.000000
80.000000, 0.000000, 3988.205078, 4168.205078, 3951.794678, 3835.384521, 3828.717773, 450.000000, 8140.000000, 8354.000000, 0.000000, 0.000000, 0.000000, 2.000000, 384.299988, 1557626336.094971, 4.000000, 4.000000, 1.000000, 4.000000, 4.000000
81.000000, 0.000000, 3992.820313, 4176.410156, 3962.563965, 3843.076904, 3851.794678, 450.000000, 8149.000000, 8346.000000, 0.000000, 0.000000, 0.000000, 2.000000, 392.000000, 1557626336.102671, 4.000000, 4.000000, 1.000000, 4.000000, 4.000000
82.000000, 0.000000, 3990.256348, 4186.153809, 3965.640869, 3848.205078, 3861.538330, 450.000000, 8145.000000, 8354.000000, 0.000000, 0.000000, 0.000000, 2.000000, 400.000012, 1557626336.110671, 4.000000, 4.000000, 1.000000, 4.000000, 4.000000
83.000000, 0.000000, 3981.538330, 4171.794922, 3958.461426, 3828.205078, 3850.256348, 16184.000000, 8138.000000, 8354.000000, 0.000000, 0.000000, 0.000000, 2.000000, 407.800013, 1557626336.118471, 4.000000, 4.000000, 1.000000, 4.000000, 4.000000
84.000000, 0.000000, 3989.743408, 4168.205078, 3956.923096, 3834.871582, 3857.948730, 450.000000, 8142.000000, 8341.000000, 0.000000, 0.000000, 0.000000, 2.000000, 415.800013, 1557626336.126471, 4.000000, 4.000000, 1.000000, 4.000000, 4.000000
85.000000, 0.000000, 3996.923096, 4177.436035, 3960.512695, 3855.384521, 3867.692139, 450.000000, 8139.000000, 8344.000000, 0.000000, 0.000000, 0.000000, 2.000000, 423.800013, 1557626336.134471, 4.000000, 4.000000, 1.000000, 4.000000, 4.000000
86.000000, 0.000000, 3977.948730, 4178.461426, 3955.384521, 3844.102539, 3861.025635, 450.000000, 8133.000000, 8349.000000, 0.000000, 0.000000, 0.000000, 2.000000, 431.700012, 1557626336.142371, 4.000000, 4.000000, 1.000000, 4.000000, 4.000000
87.000000, 0.000000, 3964.102539, 4184.102539, 3954.871582, 3837.435791, 3855.384521, 16184.000000, 8142.000000, 8355.000000, 0.000000, 0.000000, 0.000000, 2.000000, 439.700012, 1557626336.150371, 4.000000, 4.000000, 1.000000, 4.000000, 4.000000
88.000000, 0.000000, 3978.974365, 4190.769043, 3967.179443, 3849.743408, 3858.461426, 450.000000, 8144.000000, 8347.000000, 0.000000, 0.000000, 0.000000, 2.000000, 447.600014, 1557626336.158271, 4.000000, 4.000000, 1.000000, 4.000000, 4.000000
89.000000, 0.000000, 3987.179443, 4183.589844, 3969.230713, 3843.589600, 3858.461426, 450.000000, 8142.000000, 8352.000000, 0.000000, 0.000000, 0.000000, 2.000000, 455.400013, 1557626336.166071, 4.000000, 4.000000, 1.000000, 4.000000, 4.000000
90.000000, 0.000000, 3989.230713, 4180.000000, 3962.051270, 3833.845947, 3857.948730, 450.000000, 8153.000000, 8358.000000, 0.000000, 0.000000, 0.000000, 2.000000, 463.100014, 1557626336.173771, 4.000000, 4.000000, 1.000000, 4.000000, 4.000000
91.000000, 0.000000, 4015.384521, 4187.692383, 3962.051270, 3838.461426, 3869.743408, 16184.000000, 8141.000000, 8365.000000, 0.000000, 0.000000, 0.000000, 2.000000, 471.100014, 1557626336.181771, 4.000000, 4.000000, 1.000000, 4.000000, 4.000000
92.000000, 0.000000, 4046.153809, 4190.256348, 3963.076904, 3846.666504, 3885.128174, 450.000000, 8143.000000, 8361.000000, 0.000000, 0.000000, 0.000000, 2.000000, 478.800011, 1557626336.189471, 4.000000, 4.000000, 1.000000, 4.000000, 4.000000
93.000000, 0.000000, 4066.153809, 4183.589844, 3957.948730, 3856.923096, 3893.845947, 450.000000, 8150.000000, 8352.000000, 0.000000, 0.000000, 0.000000, 2.000000, 486.800011, 1557626336.197471, 4.000000, 4.000000, 1.000000, 4.000000, 4.000000
94.000000, 0.000000, 4112.307617, 4196.410156, 3960.512695, 3858.461426, 3925.640869, 450.000000, 8148.000000, 8347.000000, 0.000000, 0.000000, 0.000000, 2.000000, 494.800011, 1557626336.205471, 4.000000, 4.000000, 1.000000, 4.000000, 4.000000
95.000000, 0.000000, 4193.333008, 4225.641113, 3972.307617, 3858.974365, 3980.512695, 16184.000000, 8142.000000, 8349.000000, 0.000000, 0.000000, 0.000000, 2.000000, 502.700012, 1557626336.213371, 4.000000, 4.000000, 1.000000, 4.000000, 4.000000
96.000000, 0.000000, 4248.717773, 4226.153809, 3977.435791, 3866.153809, 4013.845947, 450.000000, 8150.000000, 8355.000000, 0.000000, 0.000000, 0.000000, 2.000000, 510.700012, 1557626336.221371, 4.000000, 4.000000, 1.000000, 4.000000, 4.000000
97.000000, 0.000000, 4271.794922, 4208.717773, 3975.897217, 3879.487061, 4029.743408, 450.000000, 8154.000000, 8345.000000, 0.000000, 0.000000, 0.000000, 2.000000, 518.400009, 1557626336.229071, 4.000000, 4.000000, 1.000000, 4.000000, 4.000000
98.000000, 0.000000, 4288.205078, 4207.692383, 3972.307617, 3885.128174, 4038.974365, 450.000000, 8152.000000, 8342.000000, 0.000000, 0.000000, 0.000000, 2.000000, 526.200012, 1557626336.236871, 4.000000, 4.000000, 1.000000, 4.000000, 4.000000
99.000000, 0.000000, 4291.794922, 4216.410156, 3975.384521, 3883.589600, 4032.307617, 16184.000000, 8153.000000, 8351.000000, 0.000000, 0.000000, 0.000000, 2.000000, 533.900009, 1557626336.244571, 4.000000, 4.000000, 1.000000, 4.000000, 4.000000
100.000000, 0.000000, 4274.871582, 4224.615234, 3988.205078, 3882.051270, 4027.692139, 450.000000, 8152.000000, 8355.000000, 0.000000, 0.000000, 0.000000, 2.000000, 541.900009, 1557626336.252571, 4.000000, 4.000000, 1.000000, 4.000000, 4.000000
101.000000, 0.000000, 4247.179199, 4237.436035, 3992.820313, 3877.435791, 4036.410156, 450.000000, 8146.000000, 8344.000000, 0.000000, 0.000000, 0.000000, 2.000000, 549.800018, 1557626336.260471, 4.000000, 4.000000, 1.000000, 4.000000, 4.000000
102.000000, 0.000000, 4226.153809, 4231.281738, 3989.743408, 3883.589600, 4031.281982, 450.000000, 8145.000000, 8340.000000, 0.000000, 0.000000, 0.000000, 2.000000, 557.800018, 1557626336.268471, 4.000000, 4.000000, 1.000000, 4.000000, 4.000000
103.000000, 0.000000, 4211.794922, 4213.846191, 3989.743408, 3889.230713, 4010.256348, 16184.000000, 8149.000000, 8342.000000, 0.000000, 0.000000, 0.000000, 2.000000, 565.800018, 1557626336.276471, 4.000000, 4.000000, 1.000000, 4.000000, 4.000000
104.000000, 0.000000, 4188.717773, 4223.589844, 3986.153809, 3882.563965, 3992.307617, 450.000000, 8146.000000, 8348.000000, 0.000000, 0.000000, 0.000000, 2.000000, 573.700012, 1557626336.284371, 4.000000, 4.000000, 1.000000, 4.000000, 4.000000
105.000000, 0.000000, 4157.948730, 4235.897461, 3977.948730, 3873.845947, 3980.000000, 450.000000, 8141.000000, 8345.000000, 0.000000, 0.000000, 0.000000, 2.000000, 581.700012, 1557626336.292371, 4.000000, 4.000000, 1.000000, 4.000000, 4.000000
106.000000, 0.000000, 4142.051270, 4218.974121, 3978.461426, 3874.871582, 3972.307617, 450.000000, 8144.000000, 8346.000000, 0.000000, 0.000000, 0.000000, 2.000000, 589.400009, 1557626336.300071, 4.000000, 4.000000, 1.000000, 4.000000, 4.000000
107.000000, 0.000000, 4146.153809, 4209.743652, 3987.692139, 3886.153809, 3969.743408, 16184.000000, 8148.000000, 8348.000000, 0.000000, 0.000000, 0.000000, 2.000000, 597.200012, 1557626336.307871, 4.000000, 4.000000, 1.000000, 4.000000, 4.000000
108.000000, 0.000000, 4147.179199, 4230.256348, 3995.384521, 3902.051270, 3969.230713, 450.000000, 8143.000000, 8356.000000, 0.000000, 0.000000, 0.000000, 2.000000, 604.900009, 1557626336.315571, 4.000000, 4.000000, 1.000000, 4.000000, 4.000000
109.000000, 0.000000, 4129.743652, 4241.025391, 3992.307617, 3913.845947, 3955.897461, 450.000000, 8132.000000, 8349.000000, 0.000000, 0.000000, 0.000000, 2.000000, 612.900009, 1557626336.323571, 4.000000, 4.000000, 1.000000, 4.000000, 4.000000
110.000000, 0.000000, 4110.769043, 4231.281738, 3988.205078, 3904.102539, 3931.281982, 450.000000, 8134.000000, 8347.000000, 0.000000, 0.000000, 0.000000, 2.000000, 620.900009, 1557626336.331571, 4.000000, 4.000000, 1.000000, 4.000000, 4.000000
111.000000, 0.000000, 4101.025391, 4218.974121, 3992.820313, 3887.692139, 3921.025635, 16184.000000, 8134.000000, 8349.000000, 0.000000, 0.000000, 0.000000, 2.000000, 628.800018, 1557626336.339471, 4.000000, 4.000000, 1.000000, 4.000000, 4.000000
112.000000, 0.000000, 4089.743408, 4218.461426, 4000.000000, 3892.307617, 3925.640869, 450.000000, 8129.000000, 8363.000000, 0.000000, 0.000000, 0.000000, 2.000000, 636.800018, 1557626336.347471, 4.000000, 4.000000, 1.000000, 4.000000, 4.000000
113.000000, 0.000000, 4077.435791, 4235.384277, 4005.640869, 3905.128174, 3931.794678, 450.000000, 8130.000000, 8358.000000, 0.000000, 0.000000, 0.000000, 2.000000, 644.500015, 1557626336.355171, 4.000000, 4.000000, 1.000000, 4.000000, 4.000000
114.000000, 0.000000, 4077.435791, 4240.512695, 4004.102539, 3899.487061, 3928.717773, 450.000000, 8130.000000, 8354.000000, 0.000000, 0.000000, 0.000000, 2.000000, 652.300018, 1557626336.362971, 4.000000, 4.000000, 1.000000, 4.000000, 4.000000
115.000000, 0.000000, 4072.307617, 4228.205078, 3993.845947, 3883.589600, 3911.794678, 16184.000000, 8131.000000, 8361.000000, 0.000000, 0.000000, 0.000000, 2.000000, 660.000000, 1557626336.370671, 4.000000, 4.000000, 1.000000, 4.000000, 4.000000
116.000000, 0.000000, 4053.333252, 4225.127930, 3985.128174, 3881.025635, 3901.025635, 450.000000, 8134.000000, 8365.000000, 0.000000, 0.000000, 0.000000, 2.000000, 667.800018, 1557626336.378471, 4.000000, 4.000000, 1.000000, 4.000000, 4.000000
117.000000, 0.000000, 4057.948730, 4237.948730, 3988.717773, 3898.974365, 3919.487061, 450.000000, 8134.000000, 8367.000000, 0.000000, 0.000000, 0.000000, 2.000000, 675.700012, 1557626336.386371, 4.000000, 4.000000, 1.000000, 4.000000, 4.000000
118.000000, 0.000000, 4074.358887, 4238.974121, 3993.845947, 3913.845947, 3931.281982, 450.000000, 8137.000000, 8362.000000, 0.000000, 0.000000, 0.000000, 2.000000, 683.700012, 1557626336.394371, 4.000000, 4.000000, 1.000000, 4.000000, 4.000000
119.000000, 0.000000, 4067.179443, 4233.333008, 3994.358887, 3910.769043, 3920.512695, 16184.000000, 8144.000000, 8358.000000, 0.000000, 0.000000, 0.000000, 2.000000, 691.700012, 1557626336.402371, 4.000000, 4.000000, 1.000000, 4.000000, 4.000000
120.000000, 0.000000, 4062.563965, 4237.948730, 4001.538330, 3906.153809, 3927.179443, 450.000000, 8139.000000, 8357.000000, 0.000000, 0.000000, 0.000000, 2.000000, 699.600006, 1557626336.410271, 4.000000, 4.000000, 1.000000, 4.000000, 4.000000
121.000000, 0.000000, 4073.845947, 4241.025391, 4004.615234, 3914.871582, 3927.179443, 450.000000, 8131.000000, 8363.000000, 0.000000, 0.000000, 0.000000, 2.000000, 707.400024, 1557626336.418071, 4.000000, 4.000000, 1.000000, 4.000000, 4.000000
122.000000, 0.000000, 4070.769043, 4231.794922, 4001.538330, 3926.666504, 3912.820313, 450.000000, 8129.000000, 8364.000000, 0.000000, 0.000000, 0.000000, 2.000000, 715.300018, 1557626336.425971, 4.000000, 4.000000, 1.000000, 4.000000, 4.000000
123.000000, 0.000000, 4067.179443, 4228.205078, 4005.640869, 3920.000000, 3920.512695, 16184.000000, 8126.000000, 8354.000000, 0.000000, 0.000000, 0.000000, 2.000000, 723.300018, 1557626336.433971, 4.000000, 4.000000, 1.000000, 4.000000, 4.000000
124.000000, 0.000000, 4083.589600, 4248.717773, 3997.435791, 3898.974365, 3924.102539, 450.000000, 8125.000000, 8359.000000, 0.000000, 0.000000, 0.000000, 2.000000, 731.200012, 1557626336.441871, 4.000000, 4.000000, 1.000000, 4.000000, 4.000000
125.000000, 0.000000, 4083.076904, 4251.794922, 3986.153809, 3896.923096, 3911.281982, 450.000000, 8122.000000, 8369.000000, 0.000000, 0.000000, 0.000000, 2.000000, 739.200012, 1557626336.449871, 4.000000, 4.000000, 1.000000, 4.000000, 4.000000
126.000000, 0.000000, 4071.794678, 4230.256348, 3999.487061, 3914.871582, 3916.410156, 450.000000, 8114.000000, 8370.000000, 0.000000, 0.000000, 0.000000, 2.000000, 746.900024, 1557626336.457571, 4.000000, 4.000000, 1.000000, 4.000000, 4.000000
127.000000, 0.000000, 4074.871582, 4231.281738, 4008.205078, 3917.435791, 3927.692139, 16184.000000, 8117.000000, 8351.000000, 0.000000, 0.000000, 0.000000, 2.000000, 754.900024, 1557626336.465571, 4.000000, 4.000000, 1.000000, 4.000000, 4.000000
128.000000, 0.000000, 4070.769043, 4248.717773, 3995.384521, 3907.179443, 3919.487061, 500.000000, 8120.000000, 8353.000000, 0.000000, 0.000000, 0.000000, 2.000000, 762.900024, 1557626336.473571, 4.000000, 4.000000, 1.000000, 4.000000, 4.000000
0.000000, 0.000000, 4068.717773, 4251.281738, 3988.717773, 3916.410156, 3914.358887, 500.000000, 8119.000000, 8361.000000, 0.000000, 0.000000, 0.000000, 2.000000, 770.800018, 1557626336.481471, 4.000000, 4.000000, 1.000000, 4.000000, 4.000000
1.000000, 0.000000, 4077.948730, 4243.589844, 3991.794678, 3926.666504, 3925.128174, 500.000000, 8115.000000, 8368.000000, 0.000000, 0.000000, 0.000000, 2.000000, 778.600006, 1557626336.489271, 4.000000, 4.000000, 1.000000, 4.000000, 4.000000
2.000000, 0.000000, 4076.923096, 4243.589844, 3992.820313, 3920.000000, 3941.538330, 16200.000000, 8112.000000, 8368.000000, 0.000000, 0.000000, 0.000000, 2.000000, 786.500000, 1557626336.497171, 4.000000, 4.000000, 1.000000, 4.000000, 4.000000
3.000000, 0.000000, 4073.333252, 4238.461426, 3995.384521, 3917.435791, 3935.897461, 500.000000, 8119.000000, 8375.000000, 0.000000, 0.000000, 0.000000, 2.000000, 794.300018, 1557626336.504971, 4.000000, 4.000000, 1.000000, 4.000000, 4.000000
4.000000, 0.000000, 4095.384521, 4249.743652, 4007.179443, 3931.281982, 3922.051270, 16095.000000, 8120.000000, 8373.000000, 0.000000, 0.000000, 0.000000, 2.000000, 802.200012, 1557626336.512871, 4.000000, 4.000000, 1.000000, 4.000000, 4.000000
5.000000, 0.000000, 4123.076660, 4279.487305, 4016.410156, 3943.076904, 3943.076904, 500.000000, 8116.000000, 8374.000000, 0.000000, 0.000000, 0.000000, 2.000000, 810.000000, 1557626336.520671, 4.000000, 4.000000, 1.000000, 4.000000, 4.000000
6.000000, 0.000000, 4114.358887, 4271.281738, 4010.256348, 3941.538330, 3958.974365, 88.000000, 8120.000000, 8378.000000, 0.000000, 0.000000, 0.000000, 2.000000, 818.000000, 1557626336.528671, 4.000000, 4.000000, 1.000000, 4.000000, 4.000000
7.000000, 0.000000, 4090.256348, 4247.692383, 4004.615234, 3938.974365, 3940.512695, 500.000000, 8126.000000, 8363.000000, 0.000000, 0.000000, 0.000000, 2.000000, 825.900024, 1557626336.536571, 4.000000, 4.000000, 1.000000, 4.000000, 4.000000
8.000000, 0.000000, 4087.692139, 4253.333008, 4007.692139, 3937.948730, 3931.794678, 500.000000, 8127.000000, 8357.000000, 0.000000, 0.000000, 0.000000, 2.000000, 833.900024, 1557626336.544571, 4.000000, 4.000000, 1.000000, 4.000000, 4.000000
9.000000, 0.000000, 4107.179199, 4269.743652, 4016.410156, 3948.717773, 3952.820313, 302.000000, 8123.000000, 8369.000000, 0.000000, 0.000000, 0.000000, 2.000000, 841.800018, 1557626336.552471, 4.000000, 4.000000, 1.000000, 4.000000, 4.000000
10.000000, 0.000000, 4130.769043, 4271.794922, 4023.589600, 3964.102539, 3973.845947, 500.000000, 8127.000000, 8363.000000, 0.000000, 0.000000, 0.000000, 2.000000, 849.600006, 1557626336.560271, 4.000000, 4.000000, 1.000000, 4.000000, 4.000000
11.000000, 0.000000, 4134.358887, 4275.897461, 4011.794678, 3968.205078, 3975.384521, 16184.000000, 8129.000000, 8356.000000, 0.000000, 0.000000, 0.000000, 2.000000, 857.300018, 1557626336.567971, 4.000000, 4.000000, 1.000000, 4.000000, 4.000000
12.000000, 0.000000, 4129.230469, 4282.563965, 4003.589600, 3969.230713, 3968.205078, 500.000000, 8126.000000, 8358.000000, 0.000000, 0.000000, 0.000000, 2.000000, 865.100006, 1557626336.575771, 4.000000, 4.000000, 1.000000, 4.000000, 4.000000
13.000000, 0.000000, 4138.974121, 4279.487305, 4016.410156, 3967.179443, 3971.281982, 500.000000, 8124.000000, 8373.000000, 0.000000, 0.000000, 0.000000, 2.000000, 872.800018, 1557626336.583471, 4.000000, 4.000000, 1.000000, 4.000000, 4.000000
14.000000, 0.000000, 4144.615234, 4281.025391, 4021.025635, 3963.076904, 3971.281982, 450.000000, 8131.000000, 8373.000000, 0.000000, 0.000000, 0.000000, 2.000000, 880.800018, 1557626336.591471, 4.000000, 4.000000, 1.000000, 4.000000, 4.000000
15.000000, 0.000000, 4123.589844, 4286.153809, 4020.512695, 3967.692139, 3966.153809, 16184.000000, 8126.000000, 8365.000000, 0.000000, 0.000000, 0.000000, 2.000000, 888.800018, 1557626336.599471, 4.000000, 4.000000, 1.000000, 4.000000, 4.000000
16.000000, 0.000000, 4118.461426, 4295.897461, 4037.948730, 3980.000000, 3989.230713, 0.000000, 8136.000000, 8370.000000, 0.000000, 0.000000, 0.000000, 2.000000, 896.700012, 1557626336.607371, 4.000000, 4.000000, 1.000000, 4.000000, 4.000000
17.000000, 0.000000, 4139.487305, 4300.000000, 4047.692139, 3982.051270, 4014.358887, 0.000000, 8137.000000, 8368.000000, 0.000000, 0.000000, 0.000000, 2.000000, 904.700012, 1557626336.615371, 4.000000, 4.000000, 1.000000, 4.000000, 4.000000
18.000000, 0.000000, 4140.512695, 4300.512695, 4034.871582, 3988.717773, 4002.563965, 0.000000, 8143.000000, 8361.000000, 0.000000, 0.000000, 0.000000, 2.000000, 912.400024, 1557626336.623071, 4.000000, 4.000000, 1.000000, 4.000000, 4.000000
19.000000, 0.000000, 4132.820313, 4293.846191, 4025.128174, 3992.820313, 3975.384521, 0.000000, 8143.000000, 8366.000000, 0.000000, 0.000000, 0.000000, 2.000000, 920.200012, 1557626336.630871, 4.000000, 4.000000, 1.000000, 4.000000, 4.000000
20.000000, 0.000000, 4136.410156, 4269.743652, 4029.743408, 3977.948730, 3974.871582, 0.000000, 8146.000000, 8360.000000, 0.000000, 0.000000, 0.000000, 2.000000, 928.100037, 1557626336.638771, 4.000000, 4.000000, 1.000000, 4.000000, 4.000000
21.000000, 0.000000, 4141.538574, 4273.333008, 4040.000000, 3975.384521, 3992.820313, 0.000000, 8150.000000, 8359.000000, 0.000000, 0.000000, 0.000000, 2.000000, 935.900024, 1557626336.646571, 4.000000, 4.000000, 1.000000, 4.000000, 4.000000
22.000000, 0.000000, 4140.512695, 4299.487305, 4044.102539, 3985.128174, 3998.461426, 0.000000, 8145.000000, 8369.000000, 0.000000, 0.000000, 0.000000, 2.000000, 943.900024, 1557626336.654571, 4.000000, 4.000000, 1.000000, 4.000000, 4.000000
23.000000, 0.000000, 4135.897461, 4292.820313, 4032.820313, 3982.563965, 3993.333252, 0.000000, 8150.000000, 8373.000000, 0.000000, 0.000000, 0.000000, 2.000000, 951.799988, 1557626336.662471, 4.000000, 4.000000, 1.000000, 4.000000, 4.000000
24.000000, 0.000000, 4137.948730, 4289.743652, 4028.205078, 3973.845947, 3994.358887, 0.000000, 8145.000000, 8362.000000, 0.000000, 0.000000, 0.000000, 2.000000, 959.799988, 1557626336.670471, 4.000000, 4.000000, 1.000000, 4.000000, 4.000000
25.000000, 0.000000, 4160.000000, 4320.512695, 4031.794678, 3988.205078, 4002.051270, 0.000000, 8140.000000, 8363.000000, 0.000000, 0.000000, 0.000000, 2.000000, 967.700012, 1557626336.678371, 4.000000, 4.000000, 1.000000, 4.000000, 4.000000
26.000000, 0.000000, 4169.230469, 4314.871582, 4017.948730, 4000.000000, 3995.897217, 0.000000, 8138.000000, 8370.000000, 0.000000, 0.000000, 0.000000, 2.000000, 975.500000, 1557626336.686171, 4.000000, 4.000000, 1.000000, 4.000000, 4.000000
27.000000, 0.000000, 4147.692383, 4286.153809, 4011.794678, 3986.153809, 3987.179443, 0.000000, 8140.000000, 8365.000000, 0.000000, 0.000000, 0.000000, 2.000000, 983.200012, 1557626336.693871, 4.000000, 4.000000, 1.000000, 4.000000, 4.000000
28.000000, 0.000000, 4140.512695, 4297.948730, 4028.205078, 3982.051270, 3992.820313, 0.000000, 8143.000000, 8361.000000, 0.000000, 0.000000, 0.000000, 2.000000, 991.200012, 1557626336.701871, 4.000000, 4.000000, 1.000000, 4.000000, 4.000000
29.000000, 0.000000, 4153.846191, 4303.589844, 4027.179443, 3995.897217, 3998.974365, 0.000000, 8140.000000, 8361.000000, 0.000000, 0.000000, 0.000000, 2.000000, 999.100037, 1557626336.709771, 4.000000, 4.000000, 1.000000, 4.000000, 4.000000
30.000000, 0.000000, 4156.410156, 4288.717773, 4014.358887, 3997.948730, 3991.794678, 0.000000, 8143.000000, 8357.000000, 0.000000, 0.000000, 0.000000, 3.000000, 7.100037, 1557626336.717771, 4.000000, 4.000000, 1.000000, 4.000000, 4.000000
31.000000, 0.000000, 4150.256348, 4297.948730, 4027.692139, 3984.102539, 3991.281982, 0.000000, 8139.000000, 8360.000000, 0.000000, 0.000000, 0.000000, 3.000000, 15.100037, 1557626336.725771, 4.000000, 4.000000, 1.000000, 4.000000, 4.000000
32.000000, 0.000000, 4153.846191, 4320.512695, 4050.256348, 3986.153809, 4007.179443, 0.000000, 8133.000000, 8362.000000, 0.000000, 0.000000, 0.000000, 3.000000, 23.000000, 1557626336.733671, 4.000000, 4.000000, 1.000000, 4.000000, 4.000000
33.000000, 0.000000, 4154.871582, 4317.436035, 4037.435791, 3987.692139, 3991.281982, 0.000000, 8135.000000, 8360.000000, 0.000000, 0.000000, 0.000000, 3.000000, 31.000000, 1557626336.741671, 4.000000, 4.000000, 1.000000, 4.000000, 4.000000
34.000000, 0.000000, 4155.897461, 4308.205078, 4021.538330, 3989.230713, 3966.666504, 0.000000, 8137.000000, 8352.000000, 0.000000, 0.000000, 0.000000, 3.000000, 38.900024, 1557626336.749571, 4.000000, 4.000000, 1.000000, 4.000000, 4.000000
35.000000, 0.000000, 4154.871582, 4306.153809, 4029.230713, 3991.794678, 3976.410156, 0.000000, 8121.000000, 8360.000000, 0.000000, 0.000000, 0.000000, 3.000000, 46.900024, 1557626336.757571, 4.000000, 4.000000, 1.000000, 4.000000, 4.000000
36.000000, 0.000000, 4132.820313, 4299.487305, 4028.205078, 3971.281982, 3982.563965, 0.000000, 8119.000000, 8363.000000, 0.000000, 0.000000, 0.000000, 3.000000, 54.799988, 1557626336.765471, 4.000000, 4.000000, 1.000000, 4.000000, 4.000000
37.000000, 0.000000, 4120.512695, 4296.922852, 4022.051270, 3949.743408, 3973.333252, 0.000000, 8118.000000, 8356.000000, 0.000000, 0.000000, 0.000000, 3.000000, 62.799988, 1557626336.773471, 4.000000, 4.000000, 1.000000, 4.000000, 4.000000
38.000000, 0.000000, 4143.076660, 4306.666504, 4035.897217, 3968.205078, 3988.717773, 0.000000, 8117.000000, 8353.000000, 0.000000, 0.000000, 0.000000, 3.000000, 70.799988, 1557626336.781471, 4.000000, 4.000000, 1.000000, 4.000000, 4.000000
39.000000, 0.000000, 4167.692383, 4318.461426, 4049.743408, 4006.153809, 4016.923096, 0.000000, 8101.000000, 8367.000000, 0.000000, 0.000000, 0.000000, 3.000000, 78.700012, 1557626336.789371, 4.000000, 4.000000, 1.000000, 4.000000, 4.000000
40.000000, 0.000000, 4172.307617, 4323.589844, 4036.923096, 3998.461426, 4014.358887, 0.000000, 8091.000000, 8371.000000, 0.000000, 0.000000, 0.000000, 3.000000, 86.700012, 1557626336.797371, 4.000000, 4.000000, 1.000000, 4.000000, 4.000000
41.000000, 0.000000, 4181.025391, 4322.563965, 4023.076904, 3971.794678, 4001.025635, 0.000000, 8089.000000, 8363.000000, 0.000000, 0.000000, 0.000000, 3.000000, 94.600037, 1557626336.805271, 4.000000, 4.000000, 1.000000, 4.000000, 4.000000
42.000000, 0.000000, 4189.230469, 4317.436035, 4034.871582, 3977.435791, 4006.153809, 0.000000, 8072.000000, 8359.000000, 0.000000, 0.000000, 0.000000, 3.000000, 102.600037, 1557626336.813271, 4.000000, 4.000000, 1.000000, 4.000000, 4.000000
43.000000, 0.000000, 4173.333008, 4320.512695, 4046.153809, 3987.692139, 4017.435791, 0.000000, 8071.000000, 8363.000000, 0.000000, 0.000000, 0.000000, 3.000000, 110.500000, 1557626336.821171, 4.000000, 4.000000, 1.000000, 4.000000, 4.000000
44.000000, 0.000000, 4165.641113, 4328.205078, 4037.435791, 3988.205078, 4012.820313, 0.000000, 8052.000000, 8370.000000, 0.000000, 0.000000, 0.000000, 3.000000, 118.500000, 1557626336.829171, 4.000000, 4.000000, 1.000000, 4.000000, 4.000000
45.000000, 0.000000, 4180.000000, 4324.102539, 4032.820313, 3995.897217, 4004.102539, 0.000000, 8045.000000, 8362.000000, 0.000000, 0.000000, 0.000000, 3.000000, 126.500000, 1557626336.837171, 4.000000, 4.000000, 1.000000, 4.000000, 4.000000
46.000000, 0.000000, 4190.769043, 4327.692383, 4036.410156, 3995.897217, 4014.871582, 0.000000, 8041.000000, 8362.000000, 0.000000, 0.000000, 0.000000, 3.000000, 134.400024, 1557626336.845071, 4.000000, 4.000000, 1.000000, 4.000000, 4.000000
47.000000, 0.000000, 4193.846191, 4340.512695, 4040.000000, 3985.640869, 4018.974365, 0.000000, 8036.000000, 8355.000000, 0.000000, 0.000000, 0.000000, 3.000000, 142.400024, 1557626336.853071, 4.000000, 4.000000, 1.000000, 4.000000, 4.000000
48.000000, 0.000000, 4194.871582, 4336.922852, 4038.974365, 3986.153809, 4004.615234, 0.000000, 8038.000000, 8355.000000, 0.000000, 0.000000, 0.000000, 3.000000, 150.299988, 1557626336.860971, 4.000000, 4.000000, 1.000000, 4.000000, 4.000000
49.000000, 0.000000, 4179.487305, 4317.436035, 4026.666504, 3980.512695, 3997.435791, 0.000000, 8034.000000, 8372.000000, 0.000000, 0.000000, 0.000000, 3.000000, 158.299988, 1557626336.868971, 4.000000, 4.000000, 1.000000, 4.000000, 4.000000
50.000000, 0.000000, 4175.897461, 4321.538574, 4022.051270, 3975.897217, 4012.820313, 0.000000, 8037.000000, 8363.000000, 0.000000, 0.000000, 0.000000, 3.000000, 166.200012, 1557626336.876871, 4.000000, 4.000000, 1.000000, 4.000000, 4.000000
51.000000, 0.000000, 4197.436035, 4341.025391, 4033.845947, 4000.512695, 4018.461426, 0.000000, 8054.000000, 8361.000000, 0.000000, 0.000000, 0.000000, 3.000000, 174.200012, 1557626336.884871, 4.000000, 4.000000, 1.000000, 4.000000, 4.000000
52.000000, 0.000000, 4197.948730, 4337.948730, 4042.563965, 4013.333252, 4015.897217, 0.000000, 8054.000000, 8369.000000, 0.000000, 0.000000, 0.000000, 3.000000, 182.200012, 1557626336.892871, 4.000000, 4.000000, 1.000000, 4.000000, 4.000000
53.000000, 0.000000, 4180.000000, 4323.589844, 4042.051270, 4000.000000, 4024.615234, 0.000000, 8074.000000, 8374.000000, 0.000000, 0.000000, 0.000000, 3.000000, 190.100037, 1557626336.900771, 4.000000, 4.000000, 1.000000, 4.000000, 4.000000
54.000000, 0.000000, 4183.589844, 4332.820313, 4051.281982, 3999.487061, 4030.256348, 0.000000, 8084.000000, 8359.000000, 0.000000, 0.000000, 0.000000, 3.000000, 198.100037, 1557626336.908771, 4.000000, 4.000000, 1.000000, 4.000000, 4.000000
55.000000, 0.000000, 4193.333008, 4354.871582, 4074.358887, 4010.769043, 4034.358887, 0.000000, 8097.000000, 8361.000000, 0.000000, 0.000000, 0.000000, 3.000000, 206.000000, 1557626336.916671, 4.000000, 4.000000, 1.000000, 4.000000, 4.000000
56.000000, 0.000000, 4187.179199, 4355.897461, 4068.717773, 4004.615234, 4031.794678, 0.000000, 8107.000000, 8364.000000, 0.000000, 0.000000, 0.000000, 3.000000, 214.000000, 1557626336.924671, 4.000000, 4.000000, 1.000000, 4.000000, 4.000000
57.000000, 0.000000, 4178.461426, 4338.461426, 4049.230713, 3996.923096, 4019.487061, 0.000000, 8131.000000, 8366.000000, 0.000000, 0.000000, 0.000000, 3.000000, 222.000000, 1557626336.932671, 4.000000, 4.000000, 1.000000, 4.000000, 4.000000
58.000000, 0.000000, 4176.410156, 4334.871582, 4053.333252, 4006.153809, 4021.025635, 0.000000, 8137.000000, 8365.000000, 0.000000, 0.000000, 0.000000, 3.000000, 229.900024, 1557626336.940571, 4.000000, 4.000000, 1.000000, 4.000000, 4.000000
59.000000, 0.000000, 4181.025391, 4343.589844, 4062.563965, 4010.256348, 4029.230713, 0.000000, 8152.000000, 8361.000000, 0.000000, 0.000000, 0.000000, 3.000000, 237.900024, 1557626336.948571, 4.000000, 4.000000, 1.000000, 4.000000, 4.000000
60.000000, 0.000000, 4184.102539, 4344.102539, 4057.435791, 3998.974365, 4019.487061, 0.000000, 8173.000000, 8349.000000, 0.000000, 0.000000, 0.000000, 3.000000, 245.799988, 1557626336.956471, 4.000000, 4.000000, 1.000000, 4.000000, 4.000000
61.000000, 0.000000, 4186.666504, 4345.641113, 4061.538330, 4003.076904, 4020.512695, 0.000000, 8186.000000, 8346.000000, 0.000000, 0.000000, 0.000000, 3.000000, 253.799988, 1557626336.964471, 4.000000, 4.000000, 1.000000, 4.000000, 4.000000
62.000000, 0.000000, 4190.769043, 4351.281738, 4067.692139, 4004.102539, 4028.205078, 0.000000, 8197.000000, 8347.000000, 0.000000, 0.000000, 0.000000, 3.000000, 261.700012, 1557626336.972371, 4.000000, 4.000000, 1.000000, 4.000000, 4.000000
63.000000, 0.000000, 4190.769043, 4348.205078, 4060.000000, 3981.025635, 4011.281982, 0.000000, 8209.000000, 8345.000000, 0.000000, 0.000000, 0.000000, 3.000000, 269.700012, 1557626336.980371, 4.000000, 4.000000, 1.000000, 4.000000, 4.000000
64.000000, 0.000000, 4194.358887, 4341.025391, 4059.487061, 3987.179443, 4009.230713, 500.000000, 8216.000000, 8335.000000, 0.000000, 0.000000, 0.000000, 3.000000, 277.700012, 1557626336.988371, 4.000000, 4.000000, 1.000000, 4.000000, 4.000000
65.000000, 0.000000, 4199.487305, 4331.794922, 4059.487061, 4012.307617, 4022.051270, 500.000000, 8214.000000, 8342.000000, 0.000000, 0.000000, 0.000000, 3.000000, 285.600037, 1557626336.996271, 4.000000, 4.000000, 1.000000, 4.000000, 4.000000
66.000000, 0.000000, 4200.000000, 4333.333008, 4060.000000, 4004.615234, 4024.615234, 16189.000000, 8213.000000, 8340.000000, 0.000000, 0.000000, 0.000000, 3.000000, 293.600037, 1557626337.004271, 4.000000, 4.000000, 1.000000, 4.000000, 4.000000
67.000000, 0.000000, 4197.948730, 4344.102539, 4074.358887, 3996.923096, 4037.948730, 500.000000, 8212.000000, 8327.000000, 0.000000, 0.000000, 0.000000, 3.000000, 301.500000, 1557626337.012171, 4.000000, 4.000000, 1.000000, 4.000000, 4.000000
68.000000, 0.000000, 4191.794922, 4346.153809, 4072.820313, 4003.589600, 4034.358887, 16097.000000, 8206.000000, 8329.000000, 0.000000, 0.000000, 0.000000, 3.000000, 309.500000, 1557626337.020171, 4.000000, 4.000000, 1.000000, 4.000000, 4.000000
69.000000, 0.000000, 4181.538574, 4337.436035, 4051.794678, 3996.410156, 4000.512695, 500.000000, 8210.000000, 8333.000000, 0.000000, 0.000000, 0.000000, 3.000000, 317.400024, 1557626337.028071, 4.000000, 4.000000, 1.000000, 4.000000, 4.000000
70.000000, 0.000000, 4179.487305, 4333.846191, 4046.666504, 3987.692139, 3991.794678, 88.000000, 8197.000000, 8333.000000, 0.000000, 0.000000, 0.000000, 3.000000, 325.400024, 1557626337.036071, 4.000000, 4.000000, 1.000000, 4.000000, 4.000000
71.000000, 0.000000, 4185.641113, 4337.436035, 4048.717773, 3995.384521, 4009.230713, 500.000000, 8194.000000, 8330.000000, 0.000000, 0.000000, 0.000000, 3.000000, 333.400024, 1557626337.044071, 4.000000, 4.000000, 1.000000, 4.000000, 4.000000
72.000000, 0.000000, 4181.025391, 4348.717773, 4048.205078, 4002.051270, 4015.384521, 500.000000, 8186.000000, 8336.000000, 0.000000, 0.000000, 0.000000, 3.000000, 341.299988, 1557626337.051971, 4.000000, 4.000000, 1.000000, 4.000000, 4.000000
73.000000, 0.000000, 4173.333008, 4355.897461, 4053.333252, 4002.051270, 4019.487061, 297.000000, 8184.000000, 8329.000000, 0.000000, 0.000000, 0.000000, 3.000000, 349.299988, 1557626337.059971, 4.000000, 4.000000, 1.000000, 4.000000, 4.000000
74.000000, 0.000000, 4172.307617, 4342.563965, 4052.820313, 4009.230713, 4023.076904, 500.000000, 8180.000000, 8318.000000, 0.000000, 0.000000, 0.000000, 3.000000, 357.200012, 1557626337.067871, 4.000000, 4.000000, 1.000000, 4.000000, 4.000000
75.000000, 0.000000, 4179.487305, 4331.281738, 4054.358887, 4016.923096, 4020.000000, 16175.000000, 8172.000000, 8325.000000, 0.000000, 0.000000, 0.000000, 3.000000, 365.200012, 1557626337.075871, 4.000000, 4.000000, 1.000000, 4.000000, 4.000000
76.000000, 0.000000, 4190.256348, 4336.410156, 4062.051270, 4003.076904, 4016.923096, 500.000000, 8180.000000, 8326.000000, 0.000000, 0.000000, 0.000000, 3.000000, 373.200012, 1557626337.083871, 4.000000, 4.000000, 1.000000, 4.000000, 4.000000
77.000000, 0.000000, 4194.358887, 4347.179199, 4056.410156, 3989.230713, 4021.025635, 500.000000, 8185.000000, 8308.000000, 0.000000, 0.000000, 0.000000, 3.000000, 381.100037, 1557626337.091771, 4.000000, 4.000000, 1.000000, 4.000000, 4.000000
78.000000, 0.000000, 4200.512695, 4355.384277, 4053.333252, 4003.076904, 4027.692139, 450.000000, 8180.000000, 8311.000000, 0.000000, 0.000000, 0.000000, 3.000000, 389.100037, 1557626337.099771, 4.000000, 4.000000, 1.000000, 4.000000, 4.000000
79.000000, 0.000000, 4197.948730, 4354.871582, 4060.512695, 4010.256348, 4015.897217, 16175.000000, 8177.000000, 8324.000000, 0.000000, 0.000000, 0.000000, 3.000000, 397.000000, 1557626337.107671, 4.000000, 4.000000, 1.000000, 4.000000, 4.000000
80.000000, 0.000000, 4186.666504, 4337.948730, 4059.487061, 3999.487061, 4003.589600, 450.000000, 8175.000000, 8376.000000, 0.000000, 0.000000, 0.000000, 3.000000, 405.000012, 1557626337.115671, 4.000000, 4.000000, 1.000000, 4.000000, 4.000000
81.000000, 0.000000, 4191.794922, 4337.948730, 4052.307617, 4002.051270, 4011.794678, 450.000000, 8182.000000, 8321.000000, 0.000000, 0.000000, 0.000000, 3.000000, 412.900012, 1557626337.123571, 4.000000, 4.000000, 1.000000, 4.000000, 4.000000
82.000000, 0.000000, 4203.076660, 4354.358887, 4053.333252, 4004.615234, 4017.948730, 450.000000, 8184.000000, 8324.000000, 0.000000, 0.000000, 0.000000, 3.000000, 420.900013, 1557626337.131571, 4.000000, 4.000000, 1.000000, 4.000000, 4.000000
83.000000, 0.000000, 4190.769043, 4340.512695, 4051.281982, 4004.102539, 4008.717773, 16175.000000, 8185.000000, 8330.000000, 0.000000, 0.000000, 0.000000, 3.000000, 428.900013, 1557626337.139571, 4.000000, 4.000000, 1.000000, 4.000000, 4.000000
84.000000, 0.000000, 4178.461426, 4334.871582, 4046.153809, 4006.666504, 4004.615234, 450.000000, 8185.000000, 8329.000000, 0.000000, 0.000000, 0.000000, 3.000000, 436.800011, 1557626337.147471, 4.000000, 4.000000, 1.000000, 4.000000, 4.000000
85.000000, 0.000000, 4197.436035, 4362.563965, 4057.948730, 4003.589600, 4023.076904, 450.000000, 8189.000000, 8328.000000, 0.000000, 0.000000, 0.000000, 3.000000, 444.800011, 1557626337.155471, 4.000000, 4.000000, 1.000000, 4.000000, 4.000000
86.000000, 0.000000, 4209.230469, 4363.076660, 4065.128174, 4005.640869, 4029.230713, 450.000000, 8192.000000, 8321.000000, 0.000000, 0.000000, 0.000000, 3.000000, 452.700012, 1557626337.163371, 4.000000, 4.000000, 1.000000, 4.000000, 4.000000
87.000000, 0.000000, 4202.563965, 4343.076660, 4054.358887, 4004.615234, 4010.769043, 16175.000000, 8190.000000, 8318.000000, 0.000000, 0.000000, 0.000000, 3.000000, 460.700012, 1557626337.171371, 4.000000, 4.000000, 1.000000, 4.000000, 4.000000
88.000000, 0.000000, 4201.025391, 4350.769043, 4052.307617, 3988.205078, 4010.256348, 450.000000, 8190.000000, 8326.000000, 0.000000, 0.000000, 0.000000, 3.000000, 468.600014, 1557626337.179271, 4.000000, 4.000000, 1.000000, 4.000000, 4.000000
89.000000, 0.000000, 4204.102539, 4360.000000, 4058.461426, 3982.563965, 4035.384521, 450.000000, 8182.000000, 8328.000000, 0.000000, 0.000000, 0.000000, 3.000000, 476.600014, 1557626337.187271, 4.000000, 4.000000, 1.000000, 4.000000, 4.000000
90.000000, 0.000000, 4201.538574, 4354.358887, 4056.410156, 4001.025635, 4031.281982, 450.000000, 8186.000000, 8310.000000, 0.000000, 0.000000, 0.000000, 3.000000, 484.600014, 1557626337.195271, 4.000000, 4.000000, 1.000000, 4.000000, 4.000000
91.000000, 0.000000, 4194.871582, 4344.102539, 4048.717773, 4009.230713, 4013.845947, 16175.000000, 8180.000000, 8319.000000, 0.000000, 0.000000, 0.000000, 3.000000, 492.500015, 1557626337.203171, 4.000000, 4.000000, 1.000000, 4.000000, 4.000000
92.000000, 0.000000, 4206.666504, 4337.948730, 4057.948730, 4004.102539, 4034.358887, 450.000000, 8181.000000, 8329.000000, 0.000000, 0.000000, 0.000000, 3.000000, 500.500015, 1557626337.211171, 4.000000, 4.000000, 1.000000, 4.000000, 4.000000
93.000000, 0.000000, 4214.871582, 4350.256348, 4072.307617, 4007.179443, 4046.153809, 450.000000, 8169.000000, 8331.000000, 0.000000, 0.000000, 0.000000, 3.000000, 508.400009, 1557626337.219071, 4.000000, 4.000000, 1.000000, 4.000000, 4.000000
94.000000, 0.000000, 4199.487305, 4357.435547, 4065.640869, 4014.358887, 4029.743408, 450.000000, 8174.000000, 8320.000000, 0.000000, 0.000000, 0.000000, 3.000000, 516.400009, 1557626337.227071, 4.000000, 4.000000, 1.000000, 4.000000, 4.000000
95.000000, 0.000000, 4200.512695, 4352.307617, 4063.589600, 4026.666504, 4035.384521, 16175.000000, 8168.000000, 8335.000000, 0.000000, 0.000000, 0.000000, 3.000000, 524.300011, 1557626337.234971, 4.000000, 4.000000, 1.000000, 4.000000, 4.000000
96.000000, 0.000000, 4221.538574, 4355.897461, 4073.845947, 4031.794678, 4050.256348, 450.000000, 8168.000000, 8335.000000, 0.000000, 0.000000, 0.000000, 3.000000, 532.300018, 1557626337.242971, 4.000000, 4.000000, 1.000000, 4.000000, 4.000000
97.000000, 0.000000, 4205.127930, 4351.794922, 4064.615234, 4011.281982, 4037.435791, 450.000000, 8170.000000, 8338.000000, 0.000000, 0.000000, 0.000000, 3.000000, 540.300018, 1557626337.250971, 4.000000, 4.000000, 1.000000, 4.000000, 4.000000
98.000000, 0.000000, 4175.384277, 4342.563965, 4051.281982, 3998.461426, 4014.358887, 450.000000, 8160.000000, 8340.000000, 0.000000, 0.000000, 0.000000, 3.000000, 548.200012, 1557626337.258871, 4.000000, 4.000000, 1.000000, 4.000000, 4.000000
99.000000, 0.000000, 4187.692383, 4349.230469, 4060.512695, 4012.307617, 4012.820313, 16175.000000, 8160.000000, 8345.000000, 0.000000, 0.000000, 0.000000, 3.000000, 556.200012, 1557626337.266871, 4.000000, 4.000000, 1.000000, 4.000000, 4.000000
100.000000, 0.000000, 4203.589844, 4356.410156, 4064.102539, 4006.666504, 4021.538330, 450.000000, 8157.000000, 8348.000000, 0.000000, 0.000000, 0.000000, 3.000000, 564.100006, 1557626337.274771, 4.000000, 4.000000, 1.000000, 4.000000, 4.000000
101.000000, 0.000000, 4196.922852, 4357.948730, 4052.820313, 3983.076904, 4012.820313, 450.000000, 8149.000000, 8353.000000, 0.000000, 0.000000, 0.000000, 3.000000, 572.100006, 1557626337.282771, 4.000000, 4.000000, 1.000000, 4.000000, 4.000000
102.000000, 0.000000, 4198.461426, 4357.948730, 4049.743408, 3996.410156, 4004.615234, 450.000000, 8153.000000, 8359.000000, 0.000000, 0.000000, 0.000000, 3.000000, 580.100006, 1557626337.290771, 4.000000, 4.000000, 1.000000, 4.000000, 4.000000
103.000000, 0.000000, 4202.563965, 4346.153809, 4050.256348, 4012.820313, 4013.845947, 16175.000000, 8156.000000, 8344.000000, 0.000000, 0.000000, 0.000000, 3.000000, 588.000015, 1557626337.298671, 4.000000, 4.000000, 1.000000, 4.000000, 4.000000
104.000000, 0.000000, 4191.281738, 4339.487305, 4050.256348, 3994.871582, 4021.025635, 450.000000, 8155.000000, 8345.000000, 0.000000, 0.000000, 0.000000, 3.000000, 596.000015, 1557626337.306671, 4.000000, 4.000000, 1.000000, 4.000000, 4.000000
105.000000, 0.000000, 4177.948730, 4336.922852, 4047.692139, 3988.717773, 4010.256348, 450.000000, 8154.000000, 8350.000000, 0.000000, 0.000000, 0.000000, 3.000000, 603.900009, 1557626337.314571, 4.000000, 4.000000, 1.000000, 4.000000, 4.000000
106.000000, 0.000000, 4189.743652, 4333.333008, 4049.743408, 4012.307617, 4007.179443, 450.000000, 8152.000000, 8354.000000, 0.000000, 0.000000, 0.000000, 3.000000, 611.900009, 1557626337.322571, 4.000000, 4.000000, 1.000000, 4.000000, 4.000000
107.000000, 0.000000, 4211.794922, 4349.230469, 4062.051270, 4028.205078, 4027.692139, 16175.000000, 8153.000000, 8343.000000, 0.000000, 0.000000, 0.000000, 3.000000, 619.800018, 1557626337.330471, 4.000000, 4.000000, 1.000000, 4.000000, 4.000000
108.000000, 0.000000, 4199.487305, 4365.127930, 4066.666504, 4008.717773, 4043.076904, 450.000000, 8149.000000, 8338.000000, 0.000000, 0.000000, 0.000000, 3.000000, 627.800018, 1557626337.338471, 4.000000, 4.000000, 1.000000, 4.000000, 4.000000
109.000000, 0.000000, 4176.922852, 4353.846191, 4052.820313, 3995.384521, 4033.333252, 450.000000, 8152.000000, 8342.000000, 0.000000, 0.000000, 0.000000, 3.000000, 635.800018, 1557626337.346471, 4.000000, 4.000000, 1.000000, 4.000000, 4.000000
110.000000, 0.000000, 4186.153809, 4332.820313, 4051.794678, 4022.051270, 4021.538330, 450.000000, 8153.000000, 8338.000000, 0.000000, 0.000000, 0.000000, 3.000000, 643.700012, 1557626337.354371, 4.000000, 4.000000, 1.000000, 4.000000, 4.000000
111.000000, 0.000000, 4196.922852, 4337.948730, 4064.615234, 4026.666504, 4028.717773, 16175.000000, 8152.000000, 8343.000000, 0.000000, 0.000000, 0.000000, 3.000000, 651.700012, 1557626337.362371, 4.000000, 4.000000, 1.000000, 4.000000, 4.000000
112.000000, 0.000000, 4194.358887, 4355.897461, 4056.410156, 3992.307617, 4030.769043, 450.000000, 8154.000000, 8340.000000, 0.000000, 0.000000, 0.000000, 3.000000, 659.600006, 1557626337.370271, 4.000000, 4.000000, 1.000000, 4.000000, 4.000000
113.000000, 0.000000, 4201.025391, 4355.897461, 4041.538330, 3992.820313, 4021.025635, 450.000000, 8153.000000, 8340.000000, 0.000000, 0.000000, 0.000000, 3.000000, 667.600006, 1557626337.378271, 4.000000, 4.000000, 1.000000, 4.000000, 4.000000
114.000000, 0.000000, 4200.512695, 4352.307617, 4041.538330, 4012.820313, 4014.358887, 450.000000, 8144.000000, 8347.000000, 0.000000, 0.000000, 0.000000, 3.000000, 675.600006, 1557626337.386271, 4.000000, 4.000000, 1.000000, 4.000000, 4.000000
115.000000, 0.000000, 4194.871582, 4363.589844, 4055.897217, 3993.333252, 4017.948730, 16175.000000, 8143.000000, 8349.000000, 0.000000, 0.000000, 0.000000, 3.000000, 683.500000, 1557626337.394171, 4.000000, 4.000000, 1.000000, 4.000000, 4.000000
116.000000, 0.000000, 4207.692383, 4359.487305, 4067.179443, 3988.205078, 4030.769043, 450.000000, 8149.000000, 8341.000000, 0.000000, 0.000000, 0.000000, 3.000000, 691.500000, 1557626337.402171, 4.000000, 4.000000, 1.000000, 4.000000, 4.000000
117.000000, 0.000000, 4207.692383, 4333.846191, 4056.923096, 4017.435791, 4038.461426, 450.000000, 8153.000000, 8335.000000, 0.000000, 0.000000, 0.000000, 3.000000, 699.400024, 1557626337.410071, 4.000000, 4.000000, 1.000000, 4.000000, 4.000000
118.000000, 0.000000, 4197.948730, 4349.230469, 4054.871582, 4017.435791, 4040.000000, 450.000000, 8149.000000, 8348.000000, 0.000000, 0.000000, 0.000000, 3.000000, 707.400024, 1557626337.418071, 4.000000, 4.000000, 1.000000, 4.000000, 4.000000
119.000000, 0.000000, 4209.230469, 4379.487305, 4065.128174, 4002.051270, 4038.974365, 16175.000000, 8150.000000, 8348.000000, 0.000000, 0.000000, 0.000000, 3.000000, 715.300018, 1557626337.425971, 4.000000, 4.000000, 1.000000, 4.000000, 4.000000
120.000000, 0.000000, 4215.384277, 4352.307617, 4058.974365, 4013.333252, 4026.666504, 450.000000, 8155.000000, 8340.000000, 0.000000, 0.000000, 0.000000, 3.000000, 723.300018, 1557626337.433971, 4.000000, 4.000000, 1.000000, 4.000000, 4.000000
121.000000, 0.000000, 4214.358887, 4324.615234, 4046.153809, 4027.179443, 4015.897217, 450.000000, 8162.000000, 8338.000000, 0.000000, 0.000000, 0.000000, 3.000000, 731.300018, 1557626337.441971, 4.000000, 4.000000, 1.000000, 4.000000, 4.000000
122.000000, 1.000000, 4211.794922, 4326.153809, 4047.179443, 4024.615234, 4015.897217, 450.000000, 8161.000000, 8339.000000, 0.000000, 0.000000, 0.000000, 3.000000, 739.200012, 1557626337.449871, 4.000000, 4.000000, 1.000000, 4.000000, 4.000000
123.000000, 1.000000, 4209.230469, 4327.692383, 4048.205078, 4022.051270, 4015.897217, 450.000000, 8160.000000, 8340.000000, 0.000000, 0.000000, 0.000000, 3.000000, 747.200012, 1557626337.457871, 4.000000, 4.000000, 1.000000, 4.000000, 4.000000
124.000000, 1.000000, 4206.666504, 4329.230469, 4049.230713, 4019.487061, 4015.897217, 450.000000, 8159.000000, 8341.000000, 0.000000, 0.000000, 0.000000, 3.000000, 755.100006, 1557626337.465771, 4.000000, 4.000000, 1.000000, 4.000000, 4.000000
125.000000, 1.000000, 4204.102539, 4330.769043, 4050.256348, 4016.923096, 4015.897217, 450.000000, 8158.000000, 8342.000000, 0.000000, 0.000000, 0.000000, 3.000000, 763.100006, 1557626337.473771, 4.000000, 4.000000, 1.000000, 4.000000, 4.000000
126.000000, 1.000000, 4201.538574, 4332.307617, 4051.281982, 4014.358887, 4015.897217, 450.000000, 8157.000000, 8343.000000, 0.000000, 0.000000, 0.000000, 3.000000, 770.900024, 1557626337.481571, 4.000000, 4.000000, 1.000000, 4.000000, 4.000000
127.000000, 1.000000, 4198.974121, 4333.846191, 4052.307617, 4011.794678, 4015.897217, 450.000000, 8156.000000, 8344.000000, 0.000000, 0.000000, 0.000000, 3.000000, 778.600006, 1557626337.489271, 4.000000, 4.000000, 1.000000, 4.000000, 4.000000
128.000000, 1.000000, 4196.410156, 4335.384277, 4053.333252, 4009.230713, 4015.897217, 500.000000, 8155.000000, 8345.000000, 0.000000, 0.000000, 0.000000, 3.000000, 786.400024, 1557626337.497071, 4.000000, 4.000000, 1.000000, 4.000000, 4.000000
0.000000, 1.000000, 4193.846191, 4336.922852, 4054.358887, 4006.666504, 4015.897217, 500.000000, 8154.000000, 8346.000000, 0.000000, 0.000000, 0.000000, 3.000000, 794.100006, 1557626337.504771, 4.000000, 4.000000, 1.000000, 4.000000, 4.000000
1.000000, 0.000000, 4189.743652, 4338.974121, 4055.897217, 4003.589600, 4014.871582, 500.000000, 8147.000000, 8352.000000, 0.000000, 0.000000, 0.000000, 3.000000, 801.900024, 1557626337.512571, 4.000000, 4.000000, 1.000000, 4.000000, 4.000000
2.000000, 0.000000, 4206.666504, 4352.307617, 4054.358887, 4003.589600, 4021.025635, 16194.000000, 8145.000000, 8356.000000, 0.000000, 0.000000, 0.000000, 3.000000, 809.600006, 1557626337.520271, 4.000000, 4.000000, 1.000000, 4.000000, 4.000000
3.000000, 0.000000, 4205.127930, 4353.846191, 4051.794678, 4007.179443, 4018.974365, 500.000000, 8147.000000, 8353.000000, 0.000000, 0.000000, 0.000000, 3.000000, 817.400024, 1557626337.528071, 4.000000, 4.000000, 1.000000, 4.000000, 4.000000
4.000000, 0.000000, 4195.897461, 4347.692383, 4050.256348, 4002.051270, 4023.589600, 16108.000000, 8149.000000, 8347.000000, 0.000000, 0.000000, 0.000000, 3.000000, 825.200012, 1557626337.535871, 4.000000, 4.000000, 1.000000, 4.000000, 4.000000
5.000000, 0.000000, 4210.256348, 4344.615234, 4047.179443, 4015.384521, 4034.871582, 500.000000, 8159.000000, 8344.000000, 0.000000, 0.000000, 0.000000, 3.000000, 832.900024, 1557626337.543571, 4.000000, 4.000000, 1.000000, 4.000000, 4.000000
6.000000, 0.000000, 4218.974121, 4342.563965, 4038.974365, 4019.487061, 4033.845947, 89.000000, 8152.000000, 8351.000000, 0.000000, 0.000000, 0.000000, 3.000000, 840.700012, 1557626337.551371, 4.000000, 4.000000, 1.000000, 4.000000, 4.000000
7.000000, 0.000000, 4210.256348, 4339.487305, 4037.948730, 3998.974365, 4028.717773, 500.000000, 8153.000000, 8340.000000, 0.000000, 0.000000, 0.000000, 3.000000, 848.400024, 1557626337.559071, 4.000000, 4.000000, 1.000000, 4.000000, 4.000000
8.000000, 0.000000, 4220.512695, 4344.102539, 4046.666504, 4006.153809, 4032.307617, 500.000000, 8153.000000, 8338.000000, 0.000000, 0.000000, 0.000000, 3.000000, 856.200012, 1557626337.566871, 4.000000, 4.000000, 1.000000, 4.000000, 4.000000
9.000000, 0.000000, 4239.487305, 4358.974121, 4055.897217, 4028.205078, 4043.076904, 291.000000, 8147.000000, 8341.000000, 0.000000, 0.000000, 0.000000, 3.000000, 863.900024, 1557626337.574571, 4.000000, 4.000000, 1.000000, 4.000000, 4.000000
10.000000, 0.000000, 4232.820313, 4371.281738, 4058.461426, 4020.512695, 4044.615234, 500.000000, 8144.000000, 8341.000000, 0.000000, 0.000000, 0.000000, 3.000000, 871.700012, 1557626337.582371, 4.000000, 4.000000, 1.000000, 4.000000, 4.000000
