title:deepak happy 1, recorded:12.05.19 07.42.56, timestamp started:2019-05-12T07:42:56.863391+05:30, sampling:128, subject:, labels:COUNTER INTERPOLATED AF3 T7 Pz T8 AF4 RAW_CQ GYROX GYROY MARKER MARKER_HARDWARE SYNC TIME_STAMP_s TIME_STAMP_ms TimeStamp CQ_AF3 CQ_T7 CQ_Pz CQ_T8 CQ_AF4, chan:20, samples:3916, units:emotiv
68.000000, 0.000000, 4251.794922, 4357.435547, 4022.563965, 4013.333252, 4003.076904, 16092.000000, 8148.000000, 8350.000000, 1.000000, 1.000000, 0.000000, 0.000000, 0.000000, 1557627176.863391, 4.000000, 4.000000, 2.000000, 4.000000, 4.000000
69.000000, 0.000000, 4281.025391, 4369.230469, 4036.410156, 4027.179443, 4012.820313, 500.000000, 8149.000000, 8352.000000, 0.000000, 0.000000, 0.000000, 0.000000, 8.000000, 1557627176.871391, 4.000000, 4.000000, 2.000000, 4.000000, 4.000000
70.000000, 0.000000, 4278.974121, 4364.102539, 4035.897217, 4024.102539, 4007.179443, 262.000000, 8141.000000, 8367.000000, 0.000000, 0.000000, 0.000000, 0.000000, 16.000000, 1557627176.879391, 4.000000, 4.000000, 2.000000, 4.000000, 4.000000
71.000000, 0.000000, 4272.307617, 4351.281738, 4031.281982, 4030.256348, 4016.923096, 500.000000, 8152.000000, 8364.000000, 0.000000, 0.000000, 0.000000, 0.000000, 23.900024, 1557627176.887291, 4.000000, 4.000000, 2.000000, 4.000000, 4.000000
72.000000, 0.000000, 4277.436035, 4344.615234, 4028.205078, 4026.153809, 4010.256348, 500.000000, 8150.000000, 8360.000000, 0.000000, 0.000000, 0.000000, 0.000000, 31.700012, 1557627176.895091, 4.000000, 4.000000, 2.000000, 4.000000, 4.000000
73.000000, 0.000000, 4273.333008, 4339.487305, 4010.256348, 4000.512695, 3985.128174, 292.000000, 8155.000000, 8355.000000, 0.000000, 0.000000, 0.000000, 0.000000, 39.500000, 1557627176.902891, 4.000000, 4.000000, 2.000000, 4.000000, 4.000000
74.000000, 0.000000, 4278.974121, 4346.153809, 4010.769043, 4001.538330, 3999.487061, 500.000000, 8153.000000, 8344.000000, 0.000000, 0.000000, 0.000000, 0.000000, 47.200012, 1557627176.910591, 4.000000, 4.000000, 2.000000, 4.000000, 4.000000
75.000000, 0.000000, 4284.615234, 4360.000000, 4040.512695, 4021.025635, 4034.358887, 16172.000000, 8163.000000, 8333.000000, 0.000000, 0.000000, 0.000000, 0.000000, 55.100037, 1557627176.918491, 4.000000, 4.000000, 2.000000, 4.000000, 4.000000
76.000000, 0.000000, 4268.205078, 4359.487305, 4046.666504, 4022.563965, 4026.666504, 500.000000, 8156.000000, 8334.000000, 0.000000, 0.000000, 0.000000, 0.000000, 63.100037, 1557627176.926491, 4.000000, 4.000000, 2.000000, 4.000000, 4.000000
77.000000, 0.000000, 4263.589844, 4356.410156, 4035.384521, 4020.000000, 4004.615234, 500.000000, 8158.000000, 8333.000000, 0.000000, 0.000000, 0.000000, 0.000000, 71.100037, 1557627176.934491, 4.000000, 4.000000, 2.000000, 4.000000, 4.000000
78.000000, 0.000000, 4286.666504, 4367.179199, 4041.025635, 4028.717773, 4007.179443, 450.000000, 8153.000000, 8324.000000, 0.000000, 0.000000, 0.000000, 0.000000, 79.000000, 1557627176.942391, 4.000000, 4.000000, 2.000000, 4.000000, 4.000000
79.000000, 0.000000, 4295.384277, 4359.487305, 4048.205078, 4038.974365, 4022.563965, 16172.000000, 8150.000000, 8324.000000, 0.000000, 0.000000, 0.000000, 0.000000, 87.000000, 1557627176.950391, 4.000000, 4.000000, 2.000000, 4.000000, 4.000000
80.000000, 0.000000, 4276.922852, 4327.179199, 4043.076904, 4029.743408, 4024.615234, 450.000000, 8156.000000, 8329.000000, 0.000000, 0.000000, 0.000000, 0.000000, 94.800049, 1557627176.958191, 4.000000, 4.000000, 2.000000, 4.000000, 4.000000
81.000000, 0.000000, 4274.358887, 4323.076660, 4037.948730, 4012.307617, 4007.179443, 450.000000, 8156.000000, 8318.000000, 0.000000, 0.000000, 0.000000, 0.000000, 102.600037, 1557627176.965991, 4.000000, 4.000000, 2.000000, 4.000000, 4.000000
82.000000, 0.000000, 4291.794922, 4357.435547, 4037.948730, 4015.897217, 4007.692139, 450.000000, 8154.000000, 8321.000000, 0.000000, 0.000000, 0.000000, 0.000000, 110.300049, 1557627176.973691, 4.000000, 4.000000, 2.000000, 4.000000, 4.000000
83.000000, 0.000000, 4290.256348, 4370.769043, 4038.974365, 4023.076904, 4027.179443, 16172.000000, 8153.000000, 8336.000000, 0.000000, 0.000000, 0.000000, 0.000000, 118.200012, 1557627176.981591, 4.000000, 4.000000, 2.000000, 4.000000, 4.000000
84.000000, 0.000000, 4279.487305, 4347.692383, 4026.153809, 4015.897217, 4020.512695, 450.000000, 8158.000000, 8342.000000, 0.000000, 0.000000, 0.000000, 0.000000, 126.200012, 1557627176.989591, 4.000000, 4.000000, 2.000000, 4.000000, 4.000000
85.000000, 0.000000, 4274.358887, 4329.743652, 4011.794678, 4013.845947, 4008.717773, 450.000000, 8155.000000, 8335.000000, 0.000000, 0.000000, 0.000000, 0.000000, 134.200012, 1557627176.997591, 4.000000, 4.000000, 2.000000, 4.000000, 4.000000
86.000000, 0.000000, 4266.153809, 4330.769043, 4025.128174, 4023.589600, 4021.025635, 450.000000, 8153.000000, 8345.000000, 0.000000, 0.000000, 0.000000, 0.000000, 142.100037, 1557627177.005491, 4.000000, 4.000000, 2.000000, 4.000000, 4.000000
87.000000, 0.000000, 4269.230469, 4328.717773, 4031.794678, 4020.512695, 4021.025635, 16172.000000, 8155.000000, 8343.000000, 0.000000, 0.000000, 0.000000, 0.000000, 150.100037, 1557627177.013491, 4.000000, 4.000000, 2.000000, 4.000000, 4.000000
88.000000, 0.000000, 4280.512695, 4338.461426, 4021.025635, 4013.845947, 4005.640869, 450.000000, 8167.000000, 8341.000000, 0.000000, 0.000000, 0.000000, 0.000000, 157.900024, 1557627177.021291, 4.000000, 4.000000, 2.000000, 4.000000, 4.000000
89.000000, 0.000000, 4270.769043, 4355.897461, 4028.205078, 4023.076904, 4004.615234, 450.000000, 8167.000000, 8342.000000, 0.000000, 0.000000, 0.000000, 0.000000, 165.700012, 1557627177.029091, 4.000000, 4.000000, 2.000000, 4.000000, 4.000000
90.000000, 0.000000, 4262.563965, 4340.512695, 4039.487061, 4027.692139, 4010.769043, 450.000000, 8174.000000, 8339.000000, 0.000000, 0.000000, 0.000000, 0.000000, 173.400024, 1557627177.036791, 4.000000, 4.000000, 2.000000, 4.000000, 4.000000
91.000000, 0.000000, 4285.127930, 4331.794922, 4030.256348, 4026.666504, 4023.589600, 16172.000000, 8177.000000, 8325.000000, 0.000000, 0.000000, 0.000000, 0.000000, 181.200012, 1557627177.044591, 4.000000, 4.000000, 2.000000, 4.000000, 4.000000
92.000000, 0.000000, 4298.974121, 4360.000000, 4016.410156, 4028.205078, 4032.307617, 450.000000, 8178.000000, 8331.000000, 0.000000, 0.000000, 0.000000, 0.000000, 189.100037, 1557627177.052491, 4.000000, 4.000000, 2.000000, 4.000000, 4.000000
93.000000, 0.000000, 4280.000000, 4362.563965, 4015.384521, 4027.692139, 4021.025635, 450.000000, 8180.000000, 8339.000000, 0.000000, 0.000000, 0.000000, 0.000000, 197.000000, 1557627177.060391, 4.000000, 4.000000, 2.000000, 4.000000, 4.000000
94.000000, 0.000000, 4271.281738, 4347.692383, 4026.666504, 4033.333252, 4020.512695, 450.000000, 8179.000000, 8346.000000, 0.000000, 0.000000, 0.000000, 0.000000, 205.000000, 1557627177.068391, 4.000000, 4.000000, 2.000000, 4.000000, 4.000000
95.000000, 0.000000, 4289.230469, 4363.589844, 4036.923096, 4048.205078, 4034.871582, 16172.000000, 8174.000000, 8340.000000, 0.000000, 0.000000, 0.000000, 0.000000, 212.800049, 1557627177.076191, 4.000000, 4.000000, 2.000000, 4.000000, 4.000000
96.000000, 0.000000, 4293.333008, 4365.641113, 4028.205078, 4034.871582, 4019.487061, 450.000000, 8175.000000, 8345.000000, 0.000000, 0.000000, 0.000000, 0.000000, 220.800049, 1557627177.084191, 4.000000, 4.000000, 2.000000, 4.000000, 4.000000
97.000000, 0.000000, 4275.897461, 4350.256348, 4017.948730, 4009.743408, 3993.333252, 450.000000, 8172.000000, 8359.000000, 0.000000, 0.000000, 0.000000, 0.000000, 228.500000, 1557627177.091891, 4.000000, 4.000000, 2.000000, 4.000000, 4.000000
98.000000, 0.000000, 4270.769043, 4359.487305, 4031.281982, 4029.230713, 4004.615234, 450.000000, 8170.000000, 8354.000000, 0.000000, 0.000000, 0.000000, 0.000000, 236.300049, 1557627177.099691, 4.000000, 4.000000, 2.000000, 4.000000, 4.000000
99.000000, 0.000000, 4269.743652, 4356.410156, 4041.538330, 4042.563965, 4023.076904, 16172.000000, 8160.000000, 8353.000000, 0.000000, 0.000000, 0.000000, 0.000000, 244.200012, 1557627177.107591, 4.000000, 4.000000, 2.000000, 4.000000, 4.000000
100.000000, 0.000000, 4260.000000, 4336.922852, 4035.384521, 4020.000000, 4010.256348, 450.000000, 8159.000000, 8358.000000, 0.000000, 0.000000, 0.000000, 0.000000, 252.200012, 1557627177.115591, 4.000000, 4.000000, 2.000000, 4.000000, 4.000000
101.000000, 0.000000, 4268.717773, 4341.025391, 4023.589600, 4018.974365, 3987.692139, 450.000000, 8155.000000, 8357.000000, 0.000000, 0.000000, 0.000000, 0.000000, 260.100037, 1557627177.123491, 4.000000, 4.000000, 2.000000, 4.000000, 4.000000
102.000000, 0.000000, 4284.102539, 4342.563965, 4009.230713, 4031.794678, 3983.589600, 450.000000, 8151.000000, 8360.000000, 0.000000, 0.000000, 0.000000, 0.000000, 268.100037, 1557627177.131491, 4.000000, 4.000000, 2.000000, 4.000000, 4.000000
103.000000, 0.000000, 4281.025391, 4335.384277, 3998.974365, 4015.384521, 3983.076904, 16172.000000, 8152.000000, 8358.000000, 0.000000, 0.000000, 0.000000, 0.000000, 276.100037, 1557627177.139491, 4.000000, 4.000000, 2.000000, 4.000000, 4.000000
104.000000, 0.000000, 4276.410156, 4352.307617, 4006.666504, 4000.512695, 3986.666504, 450.000000, 8148.000000, 8350.000000, 0.000000, 0.000000, 0.000000, 0.000000, 284.100037, 1557627177.147491, 4.000000, 4.000000, 2.000000, 4.000000, 4.000000
105.000000, 0.000000, 4272.820313, 4370.769043, 4023.076904, 4012.307617, 4007.179443, 450.000000, 8149.000000, 8352.000000, 0.000000, 0.000000, 0.000000, 0.000000, 291.800049, 1557627177.155191, 4.000000, 4.000000, 2.000000, 4.000000, 4.000000
106.000000, 0.000000, 4271.281738, 4364.102539, 4029.743408, 4023.076904, 4014.871582, 450.000000, 8141.000000, 8369.000000, 0.000000, 0.000000, 0.000000, 0.000000, 299.600037, 1557627177.162991, 4.000000, 4.000000, 2.000000, 4.000000, 4.000000
107.000000, 0.000000, 4275.897461, 4344.615234, 4022.051270, 4025.640869, 4004.615234, 16172.000000, 8145.000000, 8369.000000, 0.000000, 0.000000, 0.000000, 0.000000, 307.400024, 1557627177.170791, 4.000000, 4.000000, 2.000000, 4.000000, 4.000000
108.000000, 0.000000, 4272.820313, 4337.436035, 4008.205078, 4026.666504, 3997.948730, 450.000000, 8144.000000, 8354.000000, 0.000000, 0.000000, 0.000000, 0.000000, 315.100037, 1557627177.178491, 4.000000, 4.000000, 2.000000, 4.000000, 4.000000
109.000000, 0.000000, 4273.846191, 4344.615234, 4019.487061, 4028.717773, 4005.128174, 450.000000, 8146.000000, 8358.000000, 0.000000, 0.000000, 0.000000, 0.000000, 323.100037, 1557627177.186491, 4.000000, 4.000000, 2.000000, 4.000000, 4.000000
110.000000, 0.000000, 4286.666504, 4346.153809, 4041.538330, 4036.923096, 4014.871582, 450.000000, 8137.000000, 8363.000000, 0.000000, 0.000000, 0.000000, 0.000000, 331.100037, 1557627177.194491, 4.000000, 4.000000, 2.000000, 4.000000, 4.000000
111.000000, 0.000000, 4290.769043, 4342.051270, 4040.512695, 4047.692139, 4031.281982, 16172.000000, 8141.000000, 8355.000000, 0.000000, 0.000000, 0.000000, 0.000000, 339.100037, 1557627177.202491, 4.000000, 4.000000, 2.000000, 4.000000, 4.000000
112.000000, 0.000000, 4277.948730, 4337.948730, 4022.051270, 4041.025635, 4032.307617, 450.000000, 8144.000000, 8355.000000, 0.000000, 0.000000, 0.000000, 0.000000, 347.000000, 1557627177.210391, 4.000000, 4.000000, 2.000000, 4.000000, 4.000000
113.000000, 0.000000, 4265.641113, 4332.820313, 4006.666504, 4016.410156, 3996.410156, 450.000000, 8141.000000, 8359.000000, 0.000000, 0.000000, 0.000000, 0.000000, 354.800049, 1557627177.218191, 4.000000, 4.000000, 2.000000, 4.000000, 4.000000
114.000000, 0.000000, 4268.717773, 4331.794922, 4016.923096, 4019.487061, 3987.692139, 450.000000, 8144.000000, 8356.000000, 0.000000, 0.000000, 0.000000, 0.000000, 362.600037, 1557627177.225991, 4.000000, 4.000000, 2.000000, 4.000000, 4.000000
115.000000, 0.000000, 4289.743652, 4344.615234, 4032.820313, 4042.563965, 4013.845947, 16172.000000, 8140.000000, 8359.000000, 0.000000, 0.000000, 0.000000, 0.000000, 370.400024, 1557627177.233791, 4.000000, 4.000000, 2.000000, 4.000000, 4.000000
116.000000, 0.000000, 4298.461426, 4357.435547, 4029.230713, 4042.051270, 4021.538330, 450.000000, 8135.000000, 8362.000000, 0.000000, 0.000000, 0.000000, 0.000000, 378.100037, 1557627177.241491, 4.000000, 4.000000, 2.000000, 4.000000, 4.000000
117.000000, 0.000000, 4283.589844, 4349.743652, 4019.487061, 4029.743408, 4011.794678, 450.000000, 8138.000000, 8355.000000, 0.000000, 0.000000, 0.000000, 0.000000, 386.100037, 1557627177.249491, 4.000000, 4.000000, 2.000000, 4.000000, 4.000000
118.000000, 0.000000, 4273.846191, 4332.307617, 4022.051270, 4033.845947, 4012.307617, 450.000000, 8134.000000, 8351.000000, 0.000000, 0.000000, 0.000000, 0.000000, 394.100037, 1557627177.257491, 4.000000, 4.000000, 2.000000, 4.000000, 4.000000
119.000000, 0.000000, 4277.948730, 4330.256348, 4028.717773, 4044.102539, 4015.897217, 16172.000000, 8134.000000, 8360.000000, 0.000000, 0.000000, 0.000000, 0.000000, 402.100037, 1557627177.265491, 4.000000, 4.000000, 2.000000, 4.000000, 4.000000
120.000000, 0.000000, 4290.256348, 4358.461426, 4030.769043, 4047.179443, 4022.051270, 450.000000, 8132.000000, 8360.000000, 0.000000, 0.000000, 0.000000, 0.000000, 410.000000, 1557627177.273391, 4.000000, 4.000000, 2.000000, 4.000000, 4.000000
121.000000, 0.000000, 4297.948730, 4365.127930, 4036.923096, 4043.076904, 4030.256348, 450.000000, 8133.000000, 8346.000000, 0.000000, 0.000000, 0.000000, 0.000000, 418.000000, 1557627177.281391, 4.000000, 4.000000, 2.000000, 4.000000, 4.000000
122.000000, 0.000000, 4287.179199, 4335.384277, 4035.897217, 4034.358887, 4015.897217, 450.000000, 8133.000000, 8342.000000, 0.000000, 0.000000, 0.000000, 0.000000, 425.800049, 1557627177.289191, 4.000000, 4.000000, 2.000000, 4.000000, 4.000000
123.000000, 0.000000, 4276.922852, 4326.153809, 4025.128174, 4027.692139, 4004.615234, 16172.000000, 8136.000000, 8349.000000, 0.000000, 0.000000, 0.000000, 0.000000, 433.600037, 1557627177.296991, 4.000000, 4.000000, 2.000000, 4.000000, 4.000000
124.000000, 0.000000, 4278.461426, 4335.897461, 4019.487061, 4028.205078, 4011.281982, 450.000000, 8142.000000, 8350.000000, 0.000000, 0.000000, 0.000000, 0.000000, 441.300049, 1557627177.304691, 4.000000, 4.000000, 2.000000, 4.000000, 4.000000
125.000000, 0.000000, 4277.436035, 4334.871582, 4021.025635, 4030.769043, 4015.897217, 450.000000, 8138.000000, 8342.000000, 0.000000, 0.000000, 0.000000, 0.000000, 449.200012, 1557627177.312591, 4.000000, 4.000000, 2.000000, 4.000000, 4.000000
126.000000, 0.000000, 4275.897461, 4339.487305, 4025.128174, 4029.743408, 4015.897217, 450.000000, 8140.000000, 8348.000000, 0.000000, 0.000000, 0.000000, 0.000000, 457.200012, 1557627177.320591, 4.000000, 4.000000, 2.000000, 4.000000, 4.000000
127.000000, 0.000000, 4281.538574, 4351.794922, 4023.589600, 4021.538330, 4015.897217, 16172.000000, 8145.000000, 8334.000000, 0.000000, 0.000000, 0.000000, 0.000000, 465.100037, 1557627177.328491, 4.000000, 4.000000, 2.000000, 4.000000, 4.000000
128.000000, 0.000000, 4288.205078, 4354.871582, 4017.948730, 4015.897217, 4008.717773, 500.000000, 8148.000000, 8333.000000, 0.000000, 0.000000, 0.000000, 0.000000, 473.100037, 1557627177.336491, 4.000000, 4.000000, 2.000000, 4.000000, 4.000000
0.000000, 0.000000, 4294.871582, 4357.948730, 4022.563965, 4021.538330, 4000.000000, 500.000000, 8144.000000, 8337.000000, 0.000000, 0.000000, 0.000000, 0.000000, 481.100037, 1557627177.344491, 4.000000, 4.000000, 2.000000, 4.000000, 4.000000
1.000000, 0.000000, 4294.871582, 4353.333008, 4040.000000, 4029.230713, 4008.717773, 500.000000, 8149.000000, 8332.000000, 0.000000, 0.000000, 0.000000, 0.000000, 488.900024, 1557627177.352291, 4.000000, 4.000000, 2.000000, 4.000000, 4.000000
2.000000, 0.000000, 4285.127930, 4337.948730, 4050.769043, 4036.410156, 4020.512695, 16157.000000, 8141.000000, 8334.000000, 0.000000, 0.000000, 0.000000, 0.000000, 496.600024, 1557627177.359991, 4.000000, 4.000000, 2.000000, 4.000000, 4.000000
3.000000, 0.000000, 4278.974121, 4333.333008, 4040.512695, 4034.358887, 4013.333252, 500.000000, 8143.000000, 8338.000000, 0.000000, 0.000000, 0.000000, 0.000000, 504.400024, 1557627177.367791, 4.000000, 4.000000, 2.000000, 4.000000, 4.000000
4.000000, 0.000000, 4276.410156, 4328.717773, 4021.538330, 4027.179443, 3992.307617, 16089.000000, 8143.000000, 8347.000000, 0.000000, 0.000000, 0.000000, 0.000000, 512.200024, 1557627177.375591, 4.000000, 4.000000, 2.000000, 4.000000, 4.000000
5.000000, 0.000000, 4278.974121, 4335.384277, 4018.461426, 4029.743408, 3989.230713, 500.000000, 8141.000000, 8341.000000, 0.000000, 0.000000, 0.000000, 0.000000, 520.200024, 1557627177.383591, 4.000000, 4.000000, 2.000000, 4.000000, 4.000000
6.000000, 0.000000, 4298.461426, 4367.692383, 4032.307617, 4034.871582, 4008.205078, 262.000000, 8144.000000, 8336.000000, 0.000000, 0.000000, 0.000000, 0.000000, 528.100025, 1557627177.391491, 4.000000, 4.000000, 2.000000, 4.000000, 4.000000
7.000000, 0.000000, 4303.589844, 4379.487305, 4048.205078, 4028.717773, 4018.461426, 500.000000, 8143.000000, 8346.000000, 0.000000, 0.000000, 0.000000, 0.000000, 536.100025, 1557627177.399491, 4.000000, 4.000000, 2.000000, 4.000000, 4.000000
8.000000, 0.000000, 4278.461426, 4353.846191, 4049.743408, 4024.615234, 4010.256348, 500.000000, 8137.000000, 8347.000000, 0.000000, 0.000000, 0.000000, 0.000000, 544.100025, 1557627177.407491, 4.000000, 4.000000, 2.000000, 4.000000, 4.000000
9.000000, 0.000000, 4278.974121, 4356.410156, 4042.563965, 4037.948730, 4013.333252, 296.000000, 8137.000000, 8335.000000, 0.000000, 0.000000, 0.000000, 0.000000, 551.900024, 1557627177.415291, 4.000000, 4.000000, 2.000000, 4.000000, 4.000000
10.000000, 0.000000, 4320.512695, 4392.307617, 4046.153809, 4046.666504, 4044.102539, 500.000000, 8137.000000, 8337.000000, 0.000000, 0.000000, 0.000000, 0.000000, 559.600021, 1557627177.422991, 4.000000, 4.000000, 2.000000, 4.000000, 4.000000
11.000000, 0.000000, 4337.436035, 4384.102539, 4053.333252, 4035.384521, 4057.948730, 16172.000000, 8139.000000, 8348.000000, 0.000000, 0.000000, 0.000000, 0.000000, 567.400024, 1557627177.430791, 4.000000, 4.000000, 2.000000, 4.000000, 4.000000
12.000000, 0.000000, 4313.846191, 4343.076660, 4043.076904, 4029.230713, 4041.538330, 500.000000, 8135.000000, 8348.000000, 0.000000, 0.000000, 0.000000, 0.000000, 575.200027, 1557627177.438591, 4.000000, 4.000000, 2.000000, 4.000000, 4.000000
13.000000, 0.000000, 4293.333008, 4334.358887, 4022.051270, 4030.769043, 4027.692139, 500.000000, 8138.000000, 8351.000000, 0.000000, 0.000000, 0.000000, 0.000000, 583.200027, 1557627177.446591, 4.000000, 4.000000, 2.000000, 4.000000, 4.000000
14.000000, 0.000000, 4295.897461, 4348.205078, 4018.974365, 4024.615234, 4028.205078, 450.000000, 8142.000000, 8349.000000, 0.000000, 0.000000, 0.000000, 0.000000, 591.100021, 1557627177.454491, 4.000000, 4.000000, 2.000000, 4.000000, 4.000000
15.000000, 0.000000, 4307.692383, 4354.358887, 4038.461426, 4023.076904, 4030.769043, 16172.000000, 8146.000000, 8356.000000, 0.000000, 0.000000, 0.000000, 0.000000, 599.100021, 1557627177.462491, 4.000000, 4.000000, 2.000000, 4.000000, 4.000000
16.000000, 0.000000, 4305.127930, 4346.153809, 4050.256348, 4032.820313, 4028.717773, 0.000000, 8139.000000, 8363.000000, 0.000000, 0.000000, 0.000000, 0.000000, 607.100021, 1557627177.470491, 4.000000, 4.000000, 2.000000, 4.000000, 4.000000
17.000000, 0.000000, 4301.025391, 4333.846191, 4047.179443, 4035.384521, 4027.692139, 0.000000, 8142.000000, 8367.000000, 0.000000, 0.000000, 0.000000, 0.000000, 614.800026, 1557627177.478191, 4.000000, 4.000000, 2.000000, 4.000000, 4.000000
18.000000, 0.000000, 4305.127930, 4346.666504, 4052.307617, 4035.384521, 4038.974365, 0.000000, 8150.000000, 8355.000000, 0.000000, 0.000000, 0.000000, 0.000000, 622.600021, 1557627177.485991, 4.000000, 4.000000, 2.000000, 4.000000, 4.000000
19.000000, 0.000000, 4297.948730, 4366.666504, 4057.948730, 4046.153809, 4054.871582, 0.000000, 8144.000000, 8362.000000, 0.000000, 0.000000, 0.000000, 0.000000, 630.600021, 1557627177.493991, 4.000000, 4.000000, 2.000000, 4.000000, 4.000000
20.000000, 0.000000, 4305.127930, 4366.153809, 4062.051270, 4051.281982, 4055.897217, 0.000000, 8145.000000, 8374.000000, 0.000000, 0.000000, 0.000000, 0.000000, 638.600021, 1557627177.501991, 4.000000, 4.000000, 2.000000, 4.000000, 4.000000
21.000000, 0.000000, 4322.051270, 4365.641113, 4067.179443, 4048.205078, 4044.615234, 0.000000, 8143.000000, 8371.000000, 0.000000, 0.000000, 0.000000, 0.000000, 646.300018, 1557627177.509691, 4.000000, 4.000000, 2.000000, 4.000000, 4.000000
22.000000, 0.000000, 4306.153809, 4368.205078, 4054.871582, 4035.384521, 4036.410156, 0.000000, 8146.000000, 8360.000000, 0.000000, 0.000000, 0.000000, 0.000000, 654.300018, 1557627177.517691, 4.000000, 4.000000, 2.000000, 4.000000, 4.000000
23.000000, 0.000000, 4283.589844, 4360.512695, 4050.256348, 4028.205078, 4041.025635, 0.000000, 8147.000000, 8356.000000, 0.000000, 0.000000, 0.000000, 0.000000, 662.300018, 1557627177.525691, 4.000000, 4.000000, 2.000000, 4.000000, 4.000000
24.000000, 0.000000, 4285.641113, 4347.179199, 4060.000000, 4040.512695, 4043.589600, 0.000000, 8148.000000, 8359.000000, 0.000000, 0.000000, 0.000000, 0.000000, 670.300018, 1557627177.533691, 4.000000, 4.000000, 2.000000, 4.000000, 4.000000
25.000000, 0.000000, 4287.179199, 4341.025391, 4051.794678, 4042.051270, 4032.307617, 0.000000, 8150.000000, 8360.000000, 0.000000, 0.000000, 0.000000, 0.000000, 678.100021, 1557627177.541491, 4.000000, 4.000000, 2.000000, 4.000000, 4.000000
26.000000, 0.000000, 4289.230469, 4351.281738, 4045.128174, 4038.461426, 4036.923096, 0.000000, 8146.000000, 8353.000000, 0.000000, 0.000000, 0.000000, 0.000000, 686.100021, 1557627177.549491, 4.000000, 4.000000, 2.000000, 4.000000, 4.000000
27.000000, 0.000000, 4301.538574, 4366.153809, 4060.512695, 4050.256348, 4055.384521, 0.000000, 8145.000000, 8359.000000, 0.000000, 0.000000, 0.000000, 0.000000, 693.900024, 1557627177.557291, 4.000000, 4.000000, 2.000000, 4.000000, 4.000000
28.000000, 0.000000, 4308.205078, 4365.127930, 4062.051270, 4052.820313, 4051.794678, 0.000000, 8148.000000, 8360.000000, 0.000000, 0.000000, 0.000000, 0.000000, 701.700027, 1557627177.565091, 4.000000, 4.000000, 2.000000, 4.000000, 4.000000
29.000000, 0.000000, 4303.589844, 4358.974121, 4049.230713, 4041.025635, 4040.000000, 0.000000, 8142.000000, 8360.000000, 0.000000, 0.000000, 0.000000, 0.000000, 709.600021, 1557627177.572991, 4.000000, 4.000000, 2.000000, 4.000000, 4.000000
30.000000, 0.000000, 4293.846191, 4363.589844, 4055.897217, 4038.974365, 4047.692139, 0.000000, 8147.000000, 8362.000000, 0.000000, 0.000000, 0.000000, 0.000000, 717.400024, 1557627177.580791, 4.000000, 4.000000, 2.000000, 4.000000, 4.000000
31.000000, 0.000000, 4302.051270, 4369.230469, 4065.128174, 4039.487061, 4064.615234, 0.000000, 8147.000000, 8353.000000, 0.000000, 0.000000, 0.000000, 0.000000, 725.200027, 1557627177.588591, 4.000000, 4.000000, 2.000000, 4.000000, 4.000000
32.000000, 0.000000, 4316.922852, 4370.769043, 4058.461426, 4036.923096, 4063.076904, 0.000000, 8148.000000, 8347.000000, 0.000000, 0.000000, 0.000000, 0.000000, 733.200027, 1557627177.596591, 4.000000, 4.000000, 2.000000, 4.000000, 4.000000
33.000000, 0.000000, 4298.974121, 4362.563965, 4046.153809, 4029.230713, 4033.845947, 0.000000, 8145.000000, 8357.000000, 0.000000, 0.000000, 0.000000, 0.000000, 741.100021, 1557627177.604491, 4.000000, 4.000000, 2.000000, 4.000000, 4.000000
34.000000, 0.000000, 4284.615234, 4356.410156, 4041.538330, 4020.000000, 4012.307617, 0.000000, 8141.000000, 8357.000000, 0.000000, 0.000000, 0.000000, 0.000000, 748.900024, 1557627177.612291, 4.000000, 4.000000, 2.000000, 4.000000, 4.000000
35.000000, 0.000000, 4311.794922, 4362.563965, 4049.230713, 4032.307617, 4029.743408, 0.000000, 8144.000000, 8352.000000, 0.000000, 0.000000, 0.000000, 0.000000, 756.700012, 1557627177.620091, 4.000000, 4.000000, 2.000000, 4.000000, 4.000000
36.000000, 0.000000, 4326.666504, 4360.512695, 4058.974365, 4054.358887, 4052.820313, 0.000000, 8152.000000, 8346.000000, 0.000000, 0.000000, 0.000000, 0.000000, 764.400024, 1557627177.627791, 4.000000, 4.000000, 2.000000, 4.000000, 4.000000
37.000000, 0.000000, 4307.179199, 4354.358887, 4053.845947, 4046.153809, 4044.102539, 0.000000, 8147.000000, 8350.000000, 0.000000, 0.000000, 0.000000, 0.000000, 772.400024, 1557627177.635791, 4.000000, 4.000000, 2.000000, 4.000000, 4.000000
38.000000, 0.000000, 4290.256348, 4353.333008, 4039.487061, 4021.538330, 4020.512695, 0.000000, 8148.000000, 8346.000000, 0.000000, 0.000000, 0.000000, 0.000000, 780.200012, 1557627177.643591, 4.000000, 4.000000, 2.000000, 4.000000, 4.000000
39.000000, 0.000000, 4275.897461, 4352.820313, 4036.923096, 4018.461426, 4016.923096, 0.000000, 8145.000000, 8337.000000, 0.000000, 0.000000, 0.000000, 0.000000, 788.200012, 1557627177.651591, 4.000000, 4.000000, 2.000000, 4.000000, 4.000000
40.000000, 0.000000, 4265.127930, 4345.641113, 4041.025635, 4034.871582, 4026.666504, 0.000000, 8147.000000, 8346.000000, 0.000000, 0.000000, 0.000000, 0.000000, 796.100037, 1557627177.659491, 4.000000, 4.000000, 2.000000, 4.000000, 4.000000
41.000000, 0.000000, 4273.333008, 4332.820313, 4045.640869, 4033.845947, 4014.871582, 0.000000, 8146.000000, 8341.000000, 0.000000, 0.000000, 0.000000, 0.000000, 804.100037, 1557627177.667491, 4.000000, 4.000000, 2.000000, 4.000000, 4.000000
42.000000, 0.000000, 4278.974121, 4330.769043, 4042.563965, 4005.128174, 3992.307617, 0.000000, 8141.000000, 8339.000000, 0.000000, 0.000000, 0.000000, 0.000000, 811.900024, 1557627177.675291, 4.000000, 4.000000, 2.000000, 4.000000, 4.000000
43.000000, 0.000000, 4274.358887, 4341.538574, 4032.307617, 4004.102539, 3996.923096, 0.000000, 8154.000000, 8345.000000, 0.000000, 0.000000, 0.000000, 0.000000, 819.700012, 1557627177.683091, 4.000000, 4.000000, 2.000000, 4.000000, 4.000000
44.000000, 0.000000, 4288.717773, 4346.666504, 4027.692139, 4033.333252, 4010.769043, 0.000000, 8154.000000, 8331.000000, 0.000000, 0.000000, 0.000000, 0.000000, 827.400024, 1557627177.690791, 4.000000, 4.000000, 2.000000, 4.000000, 4.000000
45.000000, 0.000000, 4295.384277, 4331.281738, 4026.153809, 4025.640869, 3997.435791, 0.000000, 8148.000000, 8334.000000, 0.000000, 0.000000, 0.000000, 0.000000, 835.200012, 1557627177.698591, 4.000000, 4.000000, 2.000000, 4.000000, 4.000000
46.000000, 0.000000, 4285.127930, 4330.256348, 4017.435791, 4006.666504, 3980.000000, 0.000000, 8144.000000, 8342.000000, 0.000000, 0.000000, 0.000000, 0.000000, 843.100037, 1557627177.706491, 4.000000, 4.000000, 2.000000, 4.000000, 4.000000
47.000000, 0.000000, 4288.717773, 4350.256348, 4023.076904, 4025.640869, 4004.102539, 0.000000, 8146.000000, 8342.000000, 0.000000, 0.000000, 0.000000, 0.000000, 851.100037, 1557627177.714491, 4.000000, 4.000000, 2.000000, 4.000000, 4.000000
48.000000, 0.000000, 4291.281738, 4346.666504, 4038.974365, 4043.589600, 4043.589600, 0.000000, 8149.000000, 8333.000000, 0.000000, 0.000000, 0.000000, 0.000000, 859.000031, 1557627177.722391, 4.000000, 4.000000, 2.000000, 4.000000, 4.000000
49.000000, 0.000000, 4286.666504, 4329.230469, 4030.256348, 4037.435791, 4039.487061, 0.000000, 8150.000000, 8337.000000, 0.000000, 0.000000, 0.000000, 0.000000, 867.000031, 1557627177.730391, 4.000000, 4.000000, 2.000000, 4.000000, 4.000000
50.000000, 0.000000, 4295.384277, 4333.846191, 4019.487061, 4030.769043, 4008.205078, 0.000000, 8144.000000, 8352.000000, 0.000000, 0.000000, 0.000000, 0.000000, 875.000031, 1557627177.738391, 4.000000, 4.000000, 2.000000, 4.000000, 4.000000
51.000000, 0.000000, 4292.307617, 4348.205078, 4029.230713, 4023.076904, 4007.692139, 0.000000, 8148.000000, 8350.000000, 0.000000, 0.000000, 0.000000, 0.000000, 882.800018, 1557627177.746191, 4.000000, 4.000000, 2.000000, 4.000000, 4.000000
52.000000, 0.000000, 4277.436035, 4342.563965, 4030.769043, 4022.051270, 4024.102539, 0.000000, 8143.000000, 8342.000000, 0.000000, 0.000000, 0.000000, 0.000000, 890.500031, 1557627177.753891, 4.000000, 4.000000, 2.000000, 4.000000, 4.000000
53.000000, 0.000000, 4287.179199, 4340.512695, 4027.692139, 4038.461426, 4022.563965, 0.000000, 8146.000000, 8344.000000, 0.000000, 0.000000, 0.000000, 0.000000, 898.300018, 1557627177.761691, 4.000000, 4.000000, 2.000000, 4.000000, 4.000000
54.000000, 0.000000, 4298.974121, 4343.076660, 4027.179443, 4035.897217, 4010.256348, 0.000000, 8146.000000, 8347.000000, 0.000000, 0.000000, 0.000000, 0.000000, 906.100037, 1557627177.769491, 4.000000, 4.000000, 2.000000, 4.000000, 4.000000
55.000000, 0.000000, 4274.358887, 4330.256348, 4018.461426, 4009.743408, 3995.384521, 0.000000, 8138.000000, 8347.000000, 0.000000, 0.000000, 0.000000, 0.000000, 914.000031, 1557627177.777391, 4.000000, 4.000000, 2.000000, 4.000000, 4.000000
56.000000, 0.000000, 4253.846191, 4324.102539, 4015.384521, 4005.640869, 3982.563965, 0.000000, 8140.000000, 8344.000000, 0.000000, 0.000000, 0.000000, 0.000000, 922.000031, 1557627177.785391, 4.000000, 4.000000, 2.000000, 4.000000, 4.000000
57.000000, 0.000000, 4276.922852, 4338.461426, 4029.230713, 4025.640869, 3989.230713, 0.000000, 8145.000000, 8345.000000, 0.000000, 0.000000, 0.000000, 0.000000, 930.000031, 1557627177.793391, 4.000000, 4.000000, 2.000000, 4.000000, 4.000000
58.000000, 0.000000, 4303.076660, 4350.769043, 4038.974365, 4042.563965, 4017.435791, 0.000000, 8142.000000, 8340.000000, 0.000000, 0.000000, 0.000000, 0.000000, 938.000031, 1557627177.801391, 4.000000, 4.000000, 2.000000, 4.000000, 4.000000
59.000000, 0.000000, 4289.230469, 4343.076660, 4031.794678, 4033.333252, 4023.589600, 0.000000, 8143.000000, 8352.000000, 0.000000, 0.000000, 0.000000, 0.000000, 945.700012, 1557627177.809091, 4.000000, 4.000000, 2.000000, 4.000000, 4.000000
60.000000, 0.000000, 4271.794922, 4338.461426, 4029.230713, 4020.512695, 4007.179443, 0.000000, 8139.000000, 8357.000000, 0.000000, 0.000000, 0.000000, 0.000000, 953.500031, 1557627177.816891, 4.000000, 4.000000, 2.000000, 4.000000, 4.000000
61.000000, 0.000000, 4281.538574, 4348.717773, 4046.153809, 4030.256348, 4013.333252, 0.000000, 8141.000000, 8349.000000, 0.000000, 0.000000, 0.000000, 0.000000, 961.500031, 1557627177.824891, 4.000000, 4.000000, 2.000000, 4.000000, 4.000000
62.000000, 0.000000, 4293.846191, 4357.435547, 4051.281982, 4035.897217, 4024.615234, 0.000000, 8146.000000, 8353.000000, 0.000000, 0.000000, 0.000000, 0.000000, 969.300018, 1557627177.832691, 4.000000, 4.000000, 2.000000, 4.000000, 4.000000
63.000000, 0.000000, 4294.358887, 4361.538574, 4033.333252, 4023.589600, 4014.871582, 0.000000, 8144.000000, 8364.000000, 0.000000, 0.000000, 0.000000, 0.000000, 977.200012, 1557627177.840591, 4.000000, 4.000000, 2.000000, 4.000000, 4.000000
64.000000, 0.000000, 4288.717773, 4357.435547, 4027.179443, 4014.358887, 4011.281982, 500.000000, 8150.000000, 8361.000000, 0.000000, 0.000000, 0.000000, 0.000000, 985.200012, 1557627177.848591, 4.000000, 4.000000, 2.000000, 4.000000, 4.000000
65.000000, 0.000000, 4280.512695, 4347.179199, 4027.692139, 4016.923096, 4013.845947, 500.000000, 8149.000000, 8349.000000, 0.000000, 0.000000, 0.000000, 0.000000, 993.200012, 1557627177.856591, 4.000000, 4.000000, 2.000000, 4.000000, 4.000000
66.000000, 0.000000, 4280.000000, 4335.384277, 4014.871582, 4020.000000, 4002.051270, 16179.000000, 8144.000000, 8346.000000, 0.000000, 0.000000, 0.000000, 1.000000, 1.100037, 1557627177.864491, 4.000000, 4.000000, 2.000000, 4.000000, 4.000000
67.000000, 0.000000, 4282.051270, 4329.230469, 4012.820313, 4018.461426, 4002.563965, 500.000000, 8145.000000, 8355.000000, 0.000000, 0.000000, 0.000000, 1.000000, 9.000000, 1557627177.872391, 4.000000, 4.000000, 2.000000, 4.000000, 4.000000
68.000000, 0.000000, 4278.974121, 4328.205078, 4020.000000, 4017.435791, 4018.974365, 16096.000000, 8148.000000, 8347.000000, 0.000000, 0.000000, 0.000000, 1.000000, 16.800049, 1557627177.880191, 4.000000, 4.000000, 2.000000, 4.000000, 4.000000
69.000000, 0.000000, 4288.717773, 4343.076660, 4008.717773, 4016.923096, 4013.845947, 500.000000, 8144.000000, 8350.000000, 0.000000, 0.000000, 0.000000, 1.000000, 24.600037, 1557627177.887991, 4.000000, 4.000000, 2.000000, 4.000000, 4.000000
70.000000, 0.000000, 4306.153809, 4361.025391, 4006.153809, 4022.051270, 4013.333252, 262.000000, 8147.000000, 8344.000000, 0.000000, 0.000000, 0.000000, 1.000000, 32.300049, 1557627177.895691, 4.000000, 4.000000, 2.000000, 4.000000, 4.000000
71.000000, 0.000000, 4304.615234, 4346.153809, 4023.076904, 4028.717773, 4026.153809, 500.000000, 8144.000000, 8343.000000, 0.000000, 0.000000, 0.000000, 1.000000, 40.200012, 1557627177.903591, 4.000000, 4.000000, 2.000000, 4.000000, 4.000000
72.000000, 0.000000, 4297.436035, 4329.743652, 4024.615234, 4033.845947, 4013.845947, 500.000000, 8144.000000, 8349.000000, 0.000000, 0.000000, 0.000000, 1.000000, 48.200012, 1557627177.911591, 4.000000, 4.000000, 2.000000, 4.000000, 4.000000
73.000000, 0.000000, 4293.846191, 4338.974121, 4015.897217, 4027.179443, 3997.435791, 296.000000, 8145.000000, 8351.000000, 0.000000, 0.000000, 0.000000, 1.000000, 56.200012, 1557627177.919591, 4.000000, 4.000000, 2.000000, 4.000000, 4.000000
74.000000, 0.000000, 4280.512695, 4346.666504, 4022.563965, 4014.358887, 4006.666504, 500.000000, 8146.000000, 8346.000000, 0.000000, 0.000000, 0.000000, 1.000000, 64.100037, 1557627177.927491, 4.000000, 4.000000, 2.000000, 4.000000, 4.000000
75.000000, 0.000000, 4278.974121, 4343.076660, 4037.948730, 4027.179443, 4028.717773, 16161.000000, 8145.000000, 8351.000000, 0.000000, 0.000000, 0.000000, 1.000000, 72.000000, 1557627177.935391, 4.000000, 4.000000, 2.000000, 4.000000, 4.000000
76.000000, 0.000000, 4308.205078, 4343.589844, 4041.025635, 4045.640869, 4042.563965, 500.000000, 8148.000000, 8369.000000, 0.000000, 0.000000, 0.000000, 1.000000, 79.800049, 1557627177.943191, 4.000000, 4.000000, 2.000000, 4.000000, 4.000000
77.000000, 0.000000, 4315.384277, 4347.179199, 4026.153809, 4038.461426, 4034.871582, 500.000000, 8144.000000, 8364.000000, 0.000000, 0.000000, 0.000000, 1.000000, 87.600037, 1557627177.950991, 4.000000, 4.000000, 2.000000, 4.000000, 4.000000
78.000000, 0.000000, 4291.794922, 4342.563965, 4014.871582, 4024.615234, 4016.410156, 450.000000, 8147.000000, 8355.000000, 0.000000, 0.000000, 0.000000, 1.000000, 95.300049, 1557627177.958691, 4.000000, 4.000000, 2.000000, 4.000000, 4.000000
79.000000, 0.000000, 4289.743652, 4344.615234, 4026.666504, 4035.384521, 4023.076904, 16161.000000, 8153.000000, 8356.000000, 0.000000, 0.000000, 0.000000, 1.000000, 103.100037, 1557627177.966491, 4.000000, 4.000000, 2.000000, 4.000000, 4.000000
80.000000, 0.000000, 4294.358887, 4354.871582, 4033.845947, 4045.128174, 4037.948730, 450.000000, 8152.000000, 8357.000000, 0.000000, 0.000000, 0.000000, 1.000000, 111.100037, 1557627177.974491, 4.000000, 4.000000, 2.000000, 4.000000, 4.000000
81.000000, 0.000000, 4285.641113, 4357.435547, 4027.692139, 4031.794678, 4025.128174, 450.000000, 8153.000000, 8359.000000, 0.000000, 0.000000, 0.000000, 1.000000, 119.100037, 1557627177.982491, 4.000000, 4.000000, 2.000000, 4.000000, 4.000000
82.000000, 0.000000, 4290.769043, 4356.922852, 4035.384521, 4034.358887, 4011.281982, 450.000000, 8147.000000, 8354.000000, 0.000000, 0.000000, 0.000000, 1.000000, 127.000000, 1557627177.990391, 4.000000, 4.000000, 2.000000, 4.000000, 4.000000
83.000000, 0.000000, 4311.281738, 4361.025391, 4038.461426, 4050.256348, 4016.410156, 16161.000000, 8147.000000, 8352.000000, 0.000000, 0.000000, 0.000000, 1.000000, 135.000000, 1557627177.998391, 4.000000, 4.000000, 2.000000, 4.000000, 4.000000
84.000000, 0.000000, 4309.743652, 4354.358887, 4017.435791, 4042.563965, 4008.717773, 450.000000, 8151.000000, 8351.000000, 0.000000, 0.000000, 0.000000, 1.000000, 143.000000, 1557627178.006391, 4.000000, 4.000000, 2.000000, 4.000000, 4.000000
85.000000, 0.000000, 4288.717773, 4334.871582, 3994.871582, 4017.948730, 3983.589600, 450.000000, 8149.000000, 8341.000000, 0.000000, 0.000000, 0.000000, 1.000000, 151.000000, 1557627178.014391, 4.000000, 4.000000, 2.000000, 4.000000, 4.000000
86.000000, 0.000000, 4293.333008, 4343.589844, 4003.589600, 4020.512695, 3987.692139, 450.000000, 8145.000000, 8343.000000, 0.000000, 0.000000, 0.000000, 1.000000, 158.700012, 1557627178.022091, 4.000000, 4.000000, 2.000000, 4.000000, 4.000000
87.000000, 0.000000, 4320.512695, 4372.820313, 4027.179443, 4049.230713, 4018.974365, 16161.000000, 8147.000000, 8334.000000, 0.000000, 0.000000, 0.000000, 1.000000, 166.700012, 1557627178.030091, 4.000000, 4.000000, 2.000000, 4.000000, 4.000000
88.000000, 0.000000, 4321.025391, 4363.589844, 4019.487061, 4049.230713, 4017.435791, 450.000000, 8147.000000, 8337.000000, 0.000000, 0.000000, 0.000000, 1.000000, 174.500000, 1557627178.037891, 4.000000, 4.000000, 2.000000, 4.000000, 4.000000
89.000000, 0.000000, 4292.307617, 4336.410156, 4007.179443, 4035.897217, 3998.974365, 450.000000, 8146.000000, 8343.000000, 0.000000, 0.000000, 0.000000, 1.000000, 182.200012, 1557627178.045591, 4.000000, 4.000000, 2.000000, 4.000000, 4.000000
90.000000, 0.000000, 4280.512695, 4343.076660, 4025.128174, 4044.102539, 4011.794678, 450.000000, 8147.000000, 8348.000000, 0.000000, 0.000000, 0.000000, 1.000000, 190.000000, 1557627178.053391, 4.000000, 4.000000, 2.000000, 4.000000, 4.000000
91.000000, 0.000000, 4284.615234, 4360.512695, 4034.358887, 4047.692139, 4026.666504, 16161.000000, 8153.000000, 8338.000000, 0.000000, 0.000000, 0.000000, 1.000000, 198.000000, 1557627178.061391, 4.000000, 4.000000, 2.000000, 4.000000, 4.000000
92.000000, 0.000000, 4288.205078, 4352.820313, 4025.128174, 4039.487061, 4021.025635, 450.000000, 8152.000000, 8338.000000, 0.000000, 0.000000, 0.000000, 1.000000, 206.000000, 1557627178.069391, 4.000000, 4.000000, 2.000000, 4.000000, 4.000000
93.000000, 0.000000, 4297.948730, 4345.641113, 4028.205078, 4038.461426, 4019.487061, 450.000000, 8153.000000, 8345.000000, 0.000000, 0.000000, 0.000000, 1.000000, 213.700012, 1557627178.077091, 4.000000, 4.000000, 2.000000, 4.000000, 4.000000
94.000000, 0.000000, 4297.436035, 4351.794922, 4022.051270, 4032.307617, 4007.179443, 450.000000, 8157.000000, 8348.000000, 0.000000, 0.000000, 0.000000, 1.000000, 221.500000, 1557627178.084891, 4.000000, 4.000000, 2.000000, 4.000000, 4.000000
95.000000, 0.000000, 4292.820313, 4353.846191, 4001.025635, 4015.384521, 3982.051270, 16161.000000, 8155.000000, 8344.000000, 0.000000, 0.000000, 0.000000, 1.000000, 229.300049, 1557627178.092691, 4.000000, 4.000000, 2.000000, 4.000000, 4.000000
96.000000, 0.000000, 4310.256348, 4355.897461, 4009.743408, 4018.461426, 3993.333252, 450.000000, 8156.000000, 8347.000000, 0.000000, 0.000000, 0.000000, 1.000000, 237.300049, 1557627178.100691, 4.000000, 4.000000, 2.000000, 4.000000, 4.000000
97.000000, 0.000000, 4326.666504, 4353.333008, 4025.128174, 4037.435791, 4027.692139, 450.000000, 8160.000000, 8348.000000, 0.000000, 0.000000, 0.000000, 1.000000, 245.000000, 1557627178.108391, 4.000000, 4.000000, 2.000000, 4.000000, 4.000000
98.000000, 0.000000, 4312.820313, 4340.512695, 4013.845947, 4044.615234, 4029.743408, 450.000000, 8159.000000, 8348.000000, 0.000000, 0.000000, 0.000000, 1.000000, 253.000000, 1557627178.116391, 4.000000, 4.000000, 2.000000, 4.000000, 4.000000
99.000000, 0.000000, 4298.461426, 4338.974121, 4010.256348, 4036.923096, 4011.794678, 16161.000000, 8151.000000, 8354.000000, 0.000000, 0.000000, 0.000000, 1.000000, 261.000000, 1557627178.124391, 4.000000, 4.000000, 2.000000, 4.000000, 4.000000
100.000000, 0.000000, 4295.897461, 4350.256348, 4028.717773, 4030.256348, 4016.923096, 450.000000, 8154.000000, 8356.000000, 0.000000, 0.000000, 0.000000, 1.000000, 269.000000, 1557627178.132391, 4.000000, 4.000000, 2.000000, 4.000000, 4.000000
101.000000, 0.000000, 4287.179199, 4355.384277, 4043.589600, 4039.487061, 4032.307617, 450.000000, 8152.000000, 8349.000000, 0.000000, 0.000000, 0.000000, 1.000000, 276.900024, 1557627178.140291, 4.000000, 4.000000, 2.000000, 4.000000, 4.000000
102.000000, 0.000000, 4288.205078, 4356.922852, 4045.640869, 4048.205078, 4024.615234, 450.000000, 8153.000000, 8356.000000, 0.000000, 0.000000, 0.000000, 1.000000, 284.700012, 1557627178.148091, 4.000000, 4.000000, 2.000000, 4.000000, 4.000000
103.000000, 0.000000, 4293.333008, 4366.666504, 4044.102539, 4044.615234, 4012.307617, 16161.000000, 8145.000000, 8359.000000, 0.000000, 0.000000, 0.000000, 1.000000, 292.500000, 1557627178.155891, 4.000000, 4.000000, 2.000000, 4.000000, 4.000000
104.000000, 0.000000, 4283.076660, 4363.589844, 4047.692139, 4044.102539, 4019.487061, 450.000000, 8149.000000, 8353.000000, 0.000000, 0.000000, 0.000000, 1.000000, 300.300049, 1557627178.163691, 4.000000, 4.000000, 2.000000, 4.000000, 4.000000
105.000000, 0.000000, 4281.025391, 4345.641113, 4052.307617, 4048.717773, 4026.153809, 450.000000, 8141.000000, 8349.000000, 0.000000, 0.000000, 0.000000, 1.000000, 308.200012, 1557627178.171591, 4.000000, 4.000000, 2.000000, 4.000000, 4.000000
106.000000, 0.000000, 4291.281738, 4343.589844, 4043.589600, 4038.974365, 4007.692139, 450.000000, 8139.000000, 8358.000000, 0.000000, 0.000000, 0.000000, 1.000000, 316.100037, 1557627178.179491, 4.000000, 4.000000, 2.000000, 4.000000, 4.000000
107.000000, 0.000000, 4285.127930, 4357.435547, 4036.923096, 4027.692139, 3997.435791, 16161.000000, 8138.000000, 8357.000000, 0.000000, 0.000000, 0.000000, 1.000000, 324.100037, 1557627178.187491, 4.000000, 4.000000, 2.000000, 4.000000, 4.000000
108.000000, 0.000000, 4275.897461, 4356.922852, 4037.948730, 4035.897217, 4014.358887, 450.000000, 8133.000000, 8353.000000, 0.000000, 0.000000, 0.000000, 1.000000, 332.000000, 1557627178.195391, 4.000000, 4.000000, 2.000000, 4.000000, 4.000000
109.000000, 0.000000, 4289.230469, 4346.666504, 4031.281982, 4046.153809, 4012.307617, 450.000000, 8138.000000, 8347.000000, 0.000000, 0.000000, 0.000000, 1.000000, 340.000000, 1557627178.203391, 4.000000, 4.000000, 2.000000, 4.000000, 4.000000
110.000000, 0.000000, 4308.205078, 4353.333008, 4028.205078, 4044.102539, 4002.051270, 450.000000, 8140.000000, 8345.000000, 0.000000, 0.000000, 0.000000, 1.000000, 347.800049, 1557627178.211191, 4.000000, 4.000000, 2.000000, 4.000000, 4.000000
111.000000, 0.000000, 4313.333008, 4361.538574, 4038.974365, 4042.563965, 4017.435791, 16161.000000, 8140.000000, 8343.000000, 0.000000, 0.000000, 0.000000, 1.000000, 355.600037, 1557627178.218991, 4.000000, 4.000000, 2.000000, 4.000000, 4.000000
112.000000, 0.000000, 4303.076660, 4354.358887, 4043.076904, 4040.000000, 4025.640869, 450.000000, 8135.000000, 8352.000000, 0.000000, 0.000000, 0.000000, 1.000000, 363.500000, 1557627178.226891, 4.000000, 4.000000, 2.000000, 4.000000, 4.000000
113.000000, 0.000000, 4290.769043, 4353.333008, 4032.820313, 4035.384521, 4010.256348, 450.000000, 8137.000000, 8355.000000, 0.000000, 0.000000, 0.000000, 1.000000, 371.500000, 1557627178.234891, 4.000000, 4.000000, 2.000000, 4.000000, 4.000000
114.000000, 0.000000, 4286.153809, 4358.461426, 4036.410156, 4040.512695, 4007.692139, 450.000000, 8145.000000, 8350.000000, 0.000000, 0.000000, 0.000000, 1.000000, 379.300049, 1557627178.242691, 4.000000, 4.000000, 2.000000, 4.000000, 4.000000
115.000000, 0.000000, 4285.127930, 4353.846191, 4046.666504, 4050.256348, 4020.512695, 16161.000000, 8143.000000, 8343.000000, 0.000000, 0.000000, 0.000000, 1.000000, 387.300049, 1557627178.250691, 4.000000, 4.000000, 2.000000, 4.000000, 4.000000
116.000000, 0.000000, 4281.025391, 4349.743652, 4032.820313, 4046.666504, 4013.333252, 450.000000, 8146.000000, 8353.000000, 0.000000, 0.000000, 0.000000, 1.000000, 395.200012, 1557627178.258591, 4.000000, 4.000000, 2.000000, 4.000000, 4.000000
117.000000, 0.000000, 4276.410156, 4351.794922, 4014.358887, 4029.230713, 4002.051270, 450.000000, 8153.000000, 8339.000000, 0.000000, 0.000000, 0.000000, 1.000000, 403.000000, 1557627178.266391, 4.000000, 4.000000, 2.000000, 4.000000, 4.000000
118.000000, 0.000000, 4284.102539, 4351.794922, 4028.717773, 4029.743408, 4016.410156, 450.000000, 8159.000000, 8338.000000, 0.000000, 0.000000, 0.000000, 1.000000, 410.800049, 1557627178.274191, 4.000000, 4.000000, 2.000000, 4.000000, 4.000000
119.000000, 0.000000, 4293.333008, 4351.794922, 4052.820313, 4044.615234, 4027.179443, 16161.000000, 8153.000000, 8348.000000, 0.000000, 0.000000, 0.000000, 1.000000, 418.600037, 1557627178.281991, 4.000000, 4.000000, 2.000000, 4.000000, 4.000000
120.000000, 0.000000, 4288.205078, 4351.794922, 4041.025635, 4034.871582, 4012.307617, 450.000000, 8146.000000, 8346.000000, 0.000000, 0.000000, 0.000000, 1.000000, 426.300049, 1557627178.289691, 4.000000, 4.000000, 2.000000, 4.000000, 4.000000
121.000000, 0.000000, 4278.461426, 4341.025391, 4023.589600, 4018.461426, 4004.615234, 450.000000, 8151.000000, 8336.000000, 0.000000, 0.000000, 0.000000, 1.000000, 434.100037, 1557627178.297491, 4.000000, 4.000000, 2.000000, 4.000000, 4.000000
122.000000, 0.000000, 4281.025391, 4341.025391, 4032.820313, 4029.743408, 4009.230713, 450.000000, 8153.000000, 8341.000000, 0.000000, 0.000000, 0.000000, 1.000000, 442.000000, 1557627178.305391, 4.000000, 4.000000, 2.000000, 4.000000, 4.000000
123.000000, 0.000000, 4293.846191, 4355.384277, 4034.358887, 4041.025635, 4004.615234, 16161.000000, 8152.000000, 8349.000000, 0.000000, 0.000000, 0.000000, 1.000000, 450.000000, 1557627178.313391, 4.000000, 4.000000, 2.000000, 4.000000, 4.000000
124.000000, 0.000000, 4295.897461, 4353.333008, 4024.615234, 4036.410156, 4009.230713, 450.000000, 8147.000000, 8348.000000, 0.000000, 0.000000, 0.000000, 1.000000, 457.900024, 1557627178.321291, 4.000000, 4.000000, 2.000000, 4.000000, 4.000000
125.000000, 0.000000, 4285.127930, 4344.102539, 4029.230713, 4035.897217, 4022.051270, 450.000000, 8147.000000, 8353.000000, 0.000000, 0.000000, 0.000000, 1.000000, 465.900024, 1557627178.329291, 4.000000, 4.000000, 2.000000, 4.000000, 4.000000
126.000000, 0.000000, 4278.461426, 4345.127930, 4025.640869, 4037.948730, 4011.281982, 450.000000, 8146.000000, 8350.000000, 0.000000, 0.000000, 0.000000, 1.000000, 473.900024, 1557627178.337291, 4.000000, 4.000000, 2.000000, 4.000000, 4.000000
127.000000, 0.000000, 4282.563965, 4345.127930, 4013.333252, 4035.897217, 3994.358887, 16161.000000, 8155.000000, 8352.000000, 0.000000, 0.000000, 0.000000, 1.000000, 481.600037, 1557627178.344991, 4.000000, 4.000000, 2.000000, 4.000000, 4.000000
128.000000, 0.000000, 4282.051270, 4345.641113, 4021.025635, 4036.923096, 4008.205078, 500.000000, 8150.000000, 8344.000000, 0.000000, 0.000000, 0.000000, 1.000000, 489.400024, 1557627178.352791, 4.000000, 4.000000, 2.000000, 4.000000, 4.000000
0.000000, 0.000000, 4276.410156, 4352.307617, 4026.153809, 4033.845947, 4022.563965, 500.000000, 8147.000000, 8352.000000, 0.000000, 0.000000, 0.000000, 1.000000, 497.200025, 1557627178.360591, 4.000000, 4.000000, 2.000000, 4.000000, 4.000000
1.000000, 0.000000, 4277.948730, 4351.281738, 4008.205078, 4015.897217, 3993.845947, 500.000000, 8147.000000, 8350.000000, 0.000000, 0.000000, 0.000000, 1.000000, 505.200024, 1557627178.368591, 4.000000, 4.000000, 2.000000, 4.000000, 4.000000
2.000000, 0.000000, 4280.512695, 4338.974121, 4001.025635, 4016.923096, 3972.307617, 16181.000000, 8150.000000, 8338.000000, 0.000000, 0.000000, 0.000000, 1.000000, 513.000025, 1557627178.376391, 4.000000, 4.000000, 2.000000, 4.000000, 4.000000
3.000000, 0.000000, 4277.436035, 4332.820313, 4016.923096, 4039.487061, 3998.461426, 500.000000, 8141.000000, 8354.000000, 0.000000, 0.000000, 0.000000, 1.000000, 521.000023, 1557627178.384391, 4.000000, 4.000000, 2.000000, 4.000000, 4.000000
4.000000, 0.000000, 4279.487305, 4337.436035, 4017.435791, 4033.333252, 4009.230713, 16105.000000, 8145.000000, 8353.000000, 0.000000, 0.000000, 0.000000, 1.000000, 529.000023, 1557627178.392391, 4.000000, 4.000000, 2.000000, 4.000000, 4.000000
5.000000, 0.000000, 4285.127930, 4344.615234, 4007.179443, 4014.871582, 3985.128174, 500.000000, 8143.000000, 8351.000000, 0.000000, 0.000000, 0.000000, 1.000000, 537.000023, 1557627178.400391, 4.000000, 4.000000, 2.000000, 4.000000, 4.000000
6.000000, 0.000000, 4282.563965, 4335.384277, 4017.435791, 4017.435791, 3981.025635, 269.000000, 8140.000000, 8352.000000, 0.000000, 0.000000, 0.000000, 1.000000, 544.700024, 1557627178.408091, 4.000000, 4.000000, 2.000000, 4.000000, 4.000000
7.000000, 0.000000, 4275.897461, 4322.563965, 4022.563965, 4013.845947, 3996.923096, 500.000000, 8141.000000, 8357.000000, 0.000000, 0.000000, 0.000000, 1.000000, 552.700027, 1557627178.416091, 4.000000, 4.000000, 2.000000, 4.000000, 4.000000
8.000000, 0.000000, 4284.615234, 4334.871582, 4010.769043, 4005.128174, 3997.435791, 500.000000, 8146.000000, 8355.000000, 0.000000, 0.000000, 0.000000, 1.000000, 560.500023, 1557627178.423891, 4.000000, 4.000000, 2.000000, 4.000000, 4.000000
9.000000, 0.000000, 4288.717773, 4345.127930, 4006.153809, 4014.871582, 3989.230713, 297.000000, 8144.000000, 8355.000000, 0.000000, 0.000000, 0.000000, 1.000000, 568.300026, 1557627178.431691, 4.000000, 4.000000, 2.000000, 4.000000, 4.000000
10.000000, 0.000000, 4266.666504, 4332.820313, 4015.897217, 4018.974365, 3996.923096, 500.000000, 8143.000000, 8362.000000, 0.000000, 0.000000, 0.000000, 1.000000, 576.200027, 1557627178.439591, 4.000000, 4.000000, 2.000000, 4.000000, 4.000000
11.000000, 0.000000, 4254.871582, 4332.820313, 4020.000000, 4016.410156, 4013.333252, 16166.000000, 8147.000000, 8355.000000, 0.000000, 0.000000, 0.000000, 1.000000, 584.200027, 1557627178.447591, 4.000000, 4.000000, 2.000000, 4.000000, 4.000000
12.000000, 0.000000, 4271.794922, 4346.666504, 4010.256348, 4020.512695, 4009.230713, 500.000000, 8150.000000, 8356.000000, 0.000000, 0.000000, 0.000000, 1.000000, 592.100021, 1557627178.455491, 4.000000, 4.000000, 2.000000, 4.000000, 4.000000
13.000000, 0.000000, 4279.487305, 4345.127930, 4006.666504, 4020.000000, 3990.256348, 500.000000, 8146.000000, 8360.000000, 0.000000, 0.000000, 0.000000, 1.000000, 600.100021, 1557627178.463491, 4.000000, 4.000000, 2.000000, 4.000000, 4.000000
14.000000, 0.000000, 4262.563965, 4338.974121, 4011.794678, 4012.307617, 3981.025635, 450.000000, 8152.000000, 8358.000000, 0.000000, 0.000000, 0.000000, 1.000000, 608.000023, 1557627178.471391, 4.000000, 4.000000, 2.000000, 4.000000, 4.000000
15.000000, 0.000000, 4257.436035, 4343.076660, 4014.871582, 4008.717773, 3987.692139, 16166.000000, 8155.000000, 8348.000000, 0.000000, 0.000000, 0.000000, 1.000000, 615.800026, 1557627178.479191, 4.000000, 4.000000, 2.000000, 4.000000, 4.000000
16.000000, 0.000000, 4266.153809, 4342.051270, 4009.743408, 4005.128174, 3997.948730, 0.000000, 8158.000000, 8347.000000, 0.000000, 0.000000, 0.000000, 1.000000, 623.600021, 1557627178.486991, 4.000000, 4.000000, 2.000000, 4.000000, 4.000000
17.000000, 0.000000, 4271.794922, 4336.410156, 4006.153809, 4012.307617, 4001.538330, 0.000000, 8159.000000, 8357.000000, 0.000000, 0.000000, 0.000000, 1.000000, 631.300018, 1557627178.494691, 4.000000, 4.000000, 2.000000, 4.000000, 4.000000
18.000000, 0.000000, 4284.615234, 4339.487305, 4016.923096, 4029.743408, 4008.205078, 0.000000, 8157.000000, 8346.000000, 0.000000, 0.000000, 0.000000, 1.000000, 639.300018, 1557627178.502691, 4.000000, 4.000000, 2.000000, 4.000000, 4.000000
19.000000, 0.000000, 4293.846191, 4344.615234, 4022.051270, 4022.051270, 4009.743408, 0.000000, 8154.000000, 8350.000000, 0.000000, 0.000000, 0.000000, 1.000000, 647.200027, 1557627178.510591, 4.000000, 4.000000, 2.000000, 4.000000, 4.000000
20.000000, 0.000000, 4290.256348, 4341.025391, 4012.307617, 4008.205078, 4006.153809, 0.000000, 8152.000000, 8356.000000, 0.000000, 0.000000, 0.000000, 1.000000, 655.200027, 1557627178.518591, 4.000000, 4.000000, 2.000000, 4.000000, 4.000000
21.000000, 0.000000, 4276.922852, 4335.897461, 4017.948730, 4025.128174, 4012.307617, 0.000000, 8149.000000, 8362.000000, 0.000000, 0.000000, 0.000000, 1.000000, 663.100021, 1557627178.526491, 4.000000, 4.000000, 2.000000, 4.000000, 4.000000
22.000000, 0.000000, 4265.127930, 4341.025391, 4033.333252, 4033.845947, 4016.923096, 0.000000, 8146.000000, 8355.000000, 0.000000, 0.000000, 0.000000, 1.000000, 671.100021, 1557627178.534491, 4.000000, 4.000000, 2.000000, 4.000000, 4.000000
23.000000, 0.000000, 4279.487305, 4342.051270, 4024.102539, 4009.743408, 4004.615234, 0.000000, 8151.000000, 8352.000000, 0.000000, 0.000000, 0.000000, 1.000000, 679.100021, 1557627178.542491, 4.000000, 4.000000, 2.000000, 4.000000, 4.000000
24.000000, 0.000000, 4284.102539, 4328.717773, 4013.333252, 4009.743408, 4000.512695, 0.000000, 8151.000000, 8347.000000, 0.000000, 0.000000, 0.000000, 1.000000, 687.100021, 1557627178.550491, 4.000000, 4.000000, 2.000000, 4.000000, 4.000000
25.000000, 0.000000, 4258.461426, 4326.666504, 4018.974365, 4030.769043, 4011.281982, 0.000000, 8145.000000, 8342.000000, 0.000000, 0.000000, 0.000000, 1.000000, 695.000031, 1557627178.558391, 4.000000, 4.000000, 2.000000, 4.000000, 4.000000
26.000000, 0.000000, 4242.051270, 4332.307617, 4012.307617, 4016.410156, 4005.128174, 0.000000, 8145.000000, 8349.000000, 0.000000, 0.000000, 0.000000, 1.000000, 703.000031, 1557627178.566391, 4.000000, 4.000000, 2.000000, 4.000000, 4.000000
27.000000, 0.000000, 4257.436035, 4335.384277, 4008.717773, 4001.538330, 3993.845947, 0.000000, 8146.000000, 8348.000000, 0.000000, 0.000000, 0.000000, 1.000000, 711.000031, 1557627178.574391, 4.000000, 4.000000, 2.000000, 4.000000, 4.000000
28.000000, 0.000000, 4277.436035, 4346.666504, 4026.153809, 4015.897217, 3998.974365, 0.000000, 8148.000000, 8341.000000, 0.000000, 0.000000, 0.000000, 1.000000, 719.000031, 1557627178.582391, 4.000000, 4.000000, 2.000000, 4.000000, 4.000000
29.000000, 0.000000, 4277.436035, 4353.333008, 4029.743408, 4023.589600, 4008.205078, 0.000000, 8145.000000, 8334.000000, 0.000000, 0.000000, 0.000000, 1.000000, 726.900024, 1557627178.590291, 4.000000, 4.000000, 2.000000, 4.000000, 4.000000
30.000000, 0.000000, 4263.589844, 4341.538574, 4015.897217, 4020.000000, 4004.615234, 0.000000, 8141.000000, 8346.000000, 0.000000, 0.000000, 0.000000, 1.000000, 734.900024, 1557627178.598291, 4.000000, 4.000000, 2.000000, 4.000000, 4.000000
31.000000, 0.000000, 4268.205078, 4336.922852, 4023.589600, 4027.692139, 4004.615234, 0.000000, 8149.000000, 8340.000000, 0.000000, 0.000000, 0.000000, 1.000000, 742.900024, 1557627178.606291, 4.000000, 4.000000, 2.000000, 4.000000, 4.000000
32.000000, 0.000000, 4293.846191, 4350.769043, 4042.051270, 4038.461426, 4021.538330, 0.000000, 8149.000000, 8328.000000, 0.000000, 0.000000, 0.000000, 1.000000, 750.900024, 1557627178.614291, 4.000000, 4.000000, 2.000000, 4.000000, 4.000000
33.000000, 0.000000, 4292.307617, 4350.769043, 4040.000000, 4034.871582, 4015.897217, 0.000000, 8147.000000, 8338.000000, 0.000000, 0.000000, 0.000000, 1.000000, 758.800018, 1557627178.622191, 4.000000, 4.000000, 2.000000, 4.000000, 4.000000
34.000000, 0.000000, 4272.820313, 4335.384277, 4025.640869, 4024.615234, 3988.717773, 0.000000, 8159.000000, 8341.000000, 0.000000, 0.000000, 0.000000, 1.000000, 766.800018, 1557627178.630191, 4.000000, 4.000000, 2.000000, 4.000000, 4.000000
35.000000, 0.000000, 4256.410156, 4319.487305, 4021.538330, 4012.820313, 3983.076904, 0.000000, 8153.000000, 8338.000000, 0.000000, 0.000000, 0.000000, 1.000000, 774.800018, 1557627178.638191, 4.000000, 4.000000, 2.000000, 4.000000, 4.000000
36.000000, 0.000000, 4236.410156, 4316.922852, 4032.307617, 4006.153809, 3989.230713, 0.000000, 8147.000000, 8339.000000, 0.000000, 0.000000, 0.000000, 1.000000, 782.700012, 1557627178.646091, 4.000000, 4.000000, 2.000000, 4.000000, 4.000000
37.000000, 0.000000, 4247.179199, 4336.922852, 4041.538330, 4018.974365, 3987.692139, 0.000000, 8148.000000, 8344.000000, 0.000000, 0.000000, 0.000000, 1.000000, 790.700012, 1557627178.654091, 4.000000, 4.000000, 2.000000, 4.000000, 4.000000
38.000000, 0.000000, 4268.205078, 4345.127930, 4042.051270, 4028.717773, 3992.307617, 0.000000, 8144.000000, 8338.000000, 0.000000, 0.000000, 0.000000, 1.000000, 798.700012, 1557627178.662091, 4.000000, 4.000000, 2.000000, 4.000000, 4.000000
39.000000, 0.000000, 4264.615234, 4331.281738, 4040.512695, 4025.128174, 4007.179443, 0.000000, 8148.000000, 8351.000000, 0.000000, 0.000000, 0.000000, 1.000000, 806.700012, 1557627178.670091, 4.000000, 4.000000, 2.000000, 4.000000, 4.000000
40.000000, 0.000000, 4264.102539, 4330.769043, 4042.563965, 4028.205078, 4015.384521, 0.000000, 8146.000000, 8352.000000, 0.000000, 0.000000, 0.000000, 1.000000, 814.600037, 1557627178.677991, 4.000000, 4.000000, 2.000000, 4.000000, 4.000000
41.000000, 0.000000, 4274.871582, 4348.205078, 4046.153809, 4029.230713, 4017.435791, 0.000000, 8147.000000, 8346.000000, 0.000000, 0.000000, 0.000000, 1.000000, 822.600037, 1557627178.685991, 4.000000, 4.000000, 2.000000, 4.000000, 4.000000
42.000000, 0.000000, 4267.179199, 4348.205078, 4047.692139, 4018.461426, 4021.025635, 0.000000, 8142.000000, 8345.000000, 0.000000, 0.000000, 0.000000, 1.000000, 830.600037, 1557627178.693991, 4.000000, 4.000000, 2.000000, 4.000000, 4.000000
43.000000, 0.000000, 4258.974121, 4333.846191, 4047.179443, 4019.487061, 4020.512695, 0.000000, 8139.000000, 8362.000000, 0.000000, 0.000000, 0.000000, 1.000000, 838.600037, 1557627178.701991, 4.000000, 4.000000, 2.000000, 4.000000, 4.000000
44.000000, 0.000000, 4267.692383, 4327.179199, 4033.333252, 4028.205078, 4004.102539, 0.000000, 8132.000000, 8363.000000, 0.000000, 0.000000, 0.000000, 1.000000, 846.500031, 1557627178.709891, 4.000000, 4.000000, 2.000000, 4.000000, 4.000000
45.000000, 0.000000, 4256.922852, 4322.563965, 4015.384521, 4016.923096, 3986.153809, 0.000000, 8136.000000, 8351.000000, 0.000000, 0.000000, 0.000000, 1.000000, 854.500031, 1557627178.717891, 4.000000, 4.000000, 2.000000, 4.000000, 4.000000
46.000000, 0.000000, 4237.948730, 4322.563965, 4020.000000, 4005.640869, 3983.589600, 0.000000, 8138.000000, 8353.000000, 0.000000, 0.000000, 0.000000, 1.000000, 862.500031, 1557627178.725891, 4.000000, 4.000000, 2.000000, 4.000000, 4.000000
47.000000, 0.000000, 4246.153809, 4325.127930, 4036.923096, 4012.820313, 3988.717773, 0.000000, 8134.000000, 8362.000000, 0.000000, 0.000000, 0.000000, 1.000000, 870.500031, 1557627178.733891, 4.000000, 4.000000, 2.000000, 4.000000, 4.000000
48.000000, 0.000000, 4262.563965, 4328.205078, 4043.076904, 4023.589600, 4002.051270, 0.000000, 8138.000000, 8358.000000, 0.000000, 0.000000, 0.000000, 1.000000, 878.400024, 1557627178.741791, 4.000000, 4.000000, 2.000000, 4.000000, 4.000000
49.000000, 0.000000, 4267.692383, 4336.410156, 4044.615234, 4028.717773, 4020.512695, 0.000000, 8141.000000, 8356.000000, 0.000000, 0.000000, 0.000000, 1.000000, 886.400024, 1557627178.749791, 4.000000, 4.000000, 2.000000, 4.000000, 4.000000
50.000000, 0.000000, 4271.281738, 4339.487305, 4042.563965, 4023.589600, 4013.333252, 0.000000, 8138.000000, 8359.000000, 0.000000, 0.000000, 0.000000, 1.000000, 894.400024, 1557627178.757791, 4.000000, 4.000000, 2.000000, 4.000000, 4.000000
51.000000, 0.000000, 4270.769043, 4328.717773, 4033.845947, 4016.923096, 3992.820313, 0.000000, 8142.000000, 8358.000000, 0.000000, 0.000000, 0.000000, 1.000000, 902.400024, 1557627178.765791, 4.000000, 4.000000, 2.000000, 4.000000, 4.000000
52.000000, 0.000000, 4263.589844, 4322.563965, 4027.179443, 4012.307617, 3993.845947, 0.000000, 8141.000000, 8366.000000, 0.000000, 0.000000, 0.000000, 1.000000, 910.300018, 1557627178.773691, 4.000000, 4.000000, 2.000000, 4.000000, 4.000000
53.000000, 0.000000, 4268.205078, 4334.871582, 4032.820313, 4006.153809, 3994.358887, 0.000000, 8141.000000, 8364.000000, 0.000000, 0.000000, 0.000000, 1.000000, 918.300018, 1557627178.781691, 4.000000, 4.000000, 2.000000, 4.000000, 4.000000
54.000000, 0.000000, 4263.589844, 4331.794922, 4027.179443, 3994.871582, 3979.487061, 0.000000, 8149.000000, 8358.000000, 0.000000, 0.000000, 0.000000, 1.000000, 926.300018, 1557627178.789691, 4.000000, 4.000000, 2.000000, 4.000000, 4.000000
55.000000, 0.000000, 4242.051270, 4309.743652, 4003.076904, 3983.076904, 3967.179443, 0.000000, 8148.000000, 8354.000000, 0.000000, 0.000000, 0.000000, 1.000000, 934.300018, 1557627178.797691, 4.000000, 4.000000, 2.000000, 4.000000, 4.000000
56.000000, 0.000000, 4252.820313, 4315.897461, 4000.512695, 3992.820313, 3970.256348, 0.000000, 8149.000000, 8366.000000, 0.000000, 0.000000, 0.000000, 1.000000, 942.200012, 1557627178.805591, 4.000000, 4.000000, 2.000000, 4.000000, 4.000000
57.000000, 0.000000, 4281.538574, 4336.410156, 4017.435791, 4014.871582, 3983.589600, 0.000000, 8144.000000, 8368.000000, 0.000000, 0.000000, 0.000000, 1.000000, 950.200012, 1557627178.813591, 4.000000, 4.000000, 2.000000, 4.000000, 4.000000
58.000000, 0.000000, 4274.871582, 4320.000000, 4011.794678, 4018.461426, 3986.666504, 0.000000, 8151.000000, 8356.000000, 0.000000, 0.000000, 0.000000, 1.000000, 958.200012, 1557627178.821591, 4.000000, 4.000000, 2.000000, 4.000000, 4.000000
59.000000, 0.000000, 4260.512695, 4304.102539, 4003.076904, 4014.871582, 3983.589600, 0.000000, 8145.000000, 8364.000000, 0.000000, 0.000000, 0.000000, 1.000000, 966.100037, 1557627178.829491, 4.000000, 4.000000, 2.000000, 4.000000, 4.000000
60.000000, 0.000000, 4258.461426, 4322.563965, 4018.974365, 4021.538330, 3990.769043, 0.000000, 8145.000000, 8372.000000, 0.000000, 0.000000, 0.000000, 1.000000, 974.100037, 1557627178.837491, 4.000000, 4.000000, 2.000000, 4.000000, 4.000000
61.000000, 0.000000, 4256.410156, 4331.794922, 4025.128174, 4027.179443, 3990.769043, 0.000000, 8145.000000, 8361.000000, 0.000000, 0.000000, 0.000000, 1.000000, 982.100037, 1557627178.845491, 4.000000, 4.000000, 2.000000, 4.000000, 4.000000
62.000000, 0.000000, 4252.820313, 4325.127930, 4023.076904, 4024.102539, 3986.153809, 0.000000, 8140.000000, 8355.000000, 0.000000, 0.000000, 0.000000, 1.000000, 990.100037, 1557627178.853491, 4.000000, 4.000000, 2.000000, 4.000000, 4.000000
63.000000, 0.000000, 4255.897461, 4324.615234, 4030.256348, 4028.205078, 4007.692139, 0.000000, 8144.000000, 8362.000000, 0.000000, 0.000000, 0.000000, 1.000000, 998.000031, 1557627178.861391, 4.000000, 4.000000, 2.000000, 4.000000, 4.000000
64.000000, 0.000000, 4256.410156, 4321.025391, 4030.769043, 4022.051270, 4013.845947, 500.000000, 8147.000000, 8355.000000, 0.000000, 0.000000, 0.000000, 2.000000, 6.000000, 1557627178.869391, 4.000000, 4.000000, 2.000000, 4.000000, 4.000000
65.000000, 0.000000, 4244.102539, 4322.051270, 4020.000000, 3996.410156, 3977.435791, 500.000000, 8147.000000, 8355.000000, 0.000000, 0.000000, 0.000000, 2.000000, 14.000000, 1557627178.877391, 4.000000, 4.000000, 2.000000, 4.000000, 4.000000
66.000000, 0.000000, 4239.487305, 4327.692383, 4007.179443, 3989.230713, 3955.897461, 16187.000000, 8146.000000, 8352.000000, 0.000000, 0.000000, 0.000000, 2.000000, 22.000000, 1557627178.885391, 4.000000, 4.000000, 2.000000, 4.000000, 4.000000
67.000000, 0.000000, 4240.000000, 4321.025391, 4013.333252, 4007.692139, 3975.384521, 500.000000, 8143.000000, 8351.000000, 0.000000, 0.000000, 0.000000, 2.000000, 29.900024, 1557627178.893291, 4.000000, 4.000000, 2.000000, 4.000000, 4.000000
68.000000, 0.000000, 4235.384277, 4325.641113, 4031.281982, 4025.640869, 4006.153809, 16109.000000, 8145.000000, 8346.000000, 0.000000, 0.000000, 0.000000, 2.000000, 37.900024, 1557627178.901291, 4.000000, 4.000000, 2.000000, 4.000000, 4.000000
69.000000, 0.000000, 4241.538574, 4338.974121, 4034.358887, 4027.179443, 4010.769043, 500.000000, 8141.000000, 8353.000000, 0.000000, 0.000000, 0.000000, 2.000000, 45.900024, 1557627178.909291, 4.000000, 4.000000, 2.000000, 4.000000, 4.000000
70.000000, 0.000000, 4257.436035, 4334.871582, 4025.128174, 4018.974365, 3994.871582, 256.000000, 8146.000000, 8351.000000, 0.000000, 0.000000, 0.000000, 2.000000, 53.900024, 1557627178.917291, 4.000000, 4.000000, 2.000000, 4.000000, 4.000000
71.000000, 0.000000, 4264.615234, 4330.256348, 4031.794678, 4013.845947, 3993.845947, 500.000000, 8150.000000, 8343.000000, 0.000000, 0.000000, 0.000000, 2.000000, 61.800049, 1557627178.925191, 4.000000, 4.000000, 2.000000, 4.000000, 4.000000
72.000000, 0.000000, 4267.179199, 4344.615234, 4041.025635, 4015.384521, 4000.512695, 500.000000, 8154.000000, 8346.000000, 0.000000, 0.000000, 0.000000, 2.000000, 69.800049, 1557627178.933191, 4.000000, 4.000000, 2.000000, 4.000000, 4.000000
73.000000, 0.000000, 4270.256348, 4347.179199, 4030.256348, 4018.461426, 3987.692139, 297.000000, 8153.000000, 8353.000000, 0.000000, 0.000000, 0.000000, 2.000000, 77.800049, 1557627178.941191, 4.000000, 4.000000, 2.000000, 4.000000, 4.000000
74.000000, 0.000000, 4262.051270, 4332.307617, 4029.230713, 4022.563965, 3982.563965, 500.000000, 8150.000000, 8345.000000, 0.000000, 0.000000, 0.000000, 2.000000, 85.800049, 1557627178.949191, 4.000000, 4.000000, 2.000000, 4.000000, 4.000000
75.000000, 0.000000, 4255.384277, 4340.512695, 4042.051270, 4026.666504, 4002.051270, 16169.000000, 8155.000000, 8342.000000, 0.000000, 0.000000, 0.000000, 2.000000, 93.700012, 1557627178.957091, 4.000000, 4.000000, 2.000000, 4.000000, 4.000000
76.000000, 0.000000, 4254.358887, 4357.948730, 4036.410156, 4023.076904, 4007.692139, 500.000000, 8155.000000, 8337.000000, 0.000000, 0.000000, 0.000000, 2.000000, 101.700012, 1557627178.965091, 4.000000, 4.000000, 2.000000, 4.000000, 4.000000
77.000000, 0.000000, 4254.358887, 4343.076660, 4012.820313, 4020.000000, 3992.820313, 500.000000, 8154.000000, 8337.000000, 0.000000, 0.000000, 0.000000, 2.000000, 109.700012, 1557627178.973091, 4.000000, 4.000000, 2.000000, 4.000000, 4.000000
78.000000, 0.000000, 4262.563965, 4332.307617, 4012.307617, 4020.512695, 3993.845947, 450.000000, 8154.000000, 8341.000000, 0.000000, 0.000000, 0.000000, 2.000000, 117.700012, 1557627178.981091, 4.000000, 4.000000, 2.000000, 4.000000, 4.000000
79.000000, 0.000000, 4267.692383, 4356.922852, 4041.025635, 4020.000000, 4014.358887, 16169.000000, 8152.000000, 8346.000000, 0.000000, 0.000000, 0.000000, 2.000000, 125.600037, 1557627178.988991, 4.000000, 4.000000, 2.000000, 4.000000, 4.000000
80.000000, 0.000000, 4264.102539, 4359.487305, 4034.871582, 4028.205078, 4015.384521, 450.000000, 8155.000000, 8336.000000, 0.000000, 0.000000, 0.000000, 2.000000, 133.600037, 1557627178.996991, 4.000000, 4.000000, 2.000000, 4.000000, 4.000000
81.000000, 0.000000, 4260.512695, 4318.461426, 4000.512695, 4027.692139, 3984.102539, 450.000000, 8155.000000, 8346.000000, 0.000000, 0.000000, 0.000000, 2.000000, 141.600037, 1557627179.004991, 4.000000, 4.000000, 2.000000, 4.000000, 4.000000
82.000000, 0.000000, 4262.563965, 4315.897461, 4003.076904, 4009.230713, 3977.435791, 450.000000, 8149.000000, 8354.000000, 0.000000, 0.000000, 0.000000, 2.000000, 149.500000, 1557627179.012891, 4.000000, 4.000000, 2.000000, 4.000000, 4.000000
83.000000, 0.000000, 4267.692383, 4344.615234, 4025.128174, 4010.256348, 4000.000000, 16169.000000, 8147.000000, 8358.000000, 0.000000, 0.000000, 0.000000, 2.000000, 157.500000, 1557627179.020891, 4.000000, 4.000000, 2.000000, 4.000000, 4.000000
84.000000, 0.000000, 4261.538574, 4332.307617, 4018.974365, 4029.743408, 4001.538330, 450.000000, 8150.000000, 8349.000000, 0.000000, 0.000000, 0.000000, 2.000000, 165.500000, 1557627179.028891, 4.000000, 4.000000, 2.000000, 4.000000, 4.000000
85.000000, 0.000000, 4257.436035, 4309.743652, 4004.102539, 4029.230713, 3984.615234, 450.000000, 8150.000000, 8354.000000, 0.000000, 0.000000, 0.000000, 2.000000, 173.500000, 1557627179.036891, 4.000000, 4.000000, 2.000000, 4.000000, 4.000000
86.000000, 0.000000, 4269.230469, 4321.025391, 4002.051270, 4013.333252, 3978.461426, 450.000000, 8147.000000, 8367.000000, 0.000000, 0.000000, 0.000000, 2.000000, 181.400024, 1557627179.044791, 4.000000, 4.000000, 2.000000, 4.000000, 4.000000
87.000000, 0.000000, 4267.179199, 4331.281738, 4000.512695, 4007.692139, 3988.205078, 16169.000000, 8145.000000, 8363.000000, 0.000000, 0.000000, 0.000000, 2.000000, 189.400024, 1557627179.052791, 4.000000, 4.000000, 2.000000, 4.000000, 4.000000
88.000000, 0.000000, 4262.051270, 4332.820313, 4016.410156, 4017.948730, 4013.845947, 450.000000, 8147.000000, 8352.000000, 0.000000, 0.000000, 0.000000, 2.000000, 197.400024, 1557627179.060791, 4.000000, 4.000000, 2.000000, 4.000000, 4.000000
89.000000, 0.000000, 4274.358887, 4351.794922, 4033.333252, 4023.589600, 4024.615234, 450.000000, 8147.000000, 8350.000000, 0.000000, 0.000000, 0.000000, 2.000000, 205.400024, 1557627179.068791, 4.000000, 4.000000, 2.000000, 4.000000, 4.000000
90.000000, 0.000000, 4275.384277, 4353.846191, 4017.435791, 4008.717773, 3998.461426, 450.000000, 8153.000000, 8355.000000, 0.000000, 0.000000, 0.000000, 2.000000, 213.300049, 1557627179.076691, 4.000000, 4.000000, 2.000000, 4.000000, 4.000000
91.000000, 0.000000, 4262.563965, 4319.487305, 3996.410156, 4000.512695, 3984.615234, 16169.000000, 8142.000000, 8349.000000, 0.000000, 0.000000, 0.000000, 2.000000, 221.300049, 1557627179.084691, 4.000000, 4.000000, 2.000000, 4.000000, 4.000000
92.000000, 0.000000, 4258.461426, 4310.769043, 4003.589600, 4018.974365, 4007.179443, 450.000000, 8141.000000, 8348.000000, 0.000000, 0.000000, 0.000000, 2.000000, 229.300049, 1557627179.092691, 4.000000, 4.000000, 2.000000, 4.000000, 4.000000
93.000000, 0.000000, 4269.230469, 4336.922852, 4022.051270, 4030.769043, 4011.281982, 450.000000, 8142.000000, 8349.000000, 0.000000, 0.000000, 0.000000, 2.000000, 237.300049, 1557627179.100691, 4.000000, 4.000000, 2.000000, 4.000000, 4.000000
94.000000, 0.000000, 4282.563965, 4349.230469, 4031.281982, 4028.205078, 3999.487061, 450.000000, 8146.000000, 8347.000000, 0.000000, 0.000000, 0.000000, 2.000000, 245.200012, 1557627179.108591, 4.000000, 4.000000, 2.000000, 4.000000, 4.000000
95.000000, 0.000000, 4278.974121, 4337.436035, 4025.128174, 4024.615234, 4006.666504, 16169.000000, 8140.000000, 8357.000000, 0.000000, 0.000000, 0.000000, 2.000000, 253.200012, 1557627179.116591, 4.000000, 4.000000, 2.000000, 4.000000, 4.000000
96.000000, 0.000000, 4258.461426, 4329.743652, 4011.794678, 4011.281982, 4006.666504, 450.000000, 8131.000000, 8353.000000, 0.000000, 0.000000, 0.000000, 2.000000, 261.200012, 1557627179.124591, 4.000000, 4.000000, 2.000000, 4.000000, 4.000000
97.000000, 0.000000, 4260.512695, 4338.461426, 4015.384521, 4004.102539, 3999.487061, 450.000000, 8139.000000, 8345.000000, 0.000000, 0.000000, 0.000000, 2.000000, 269.100037, 1557627179.132491, 4.000000, 4.000000, 2.000000, 4.000000, 4.000000
98.000000, 0.000000, 4274.871582, 4346.153809, 4017.948730, 4017.948730, 4000.000000, 450.000000, 8139.000000, 8346.000000, 0.000000, 0.000000, 0.000000, 2.000000, 277.000000, 1557627179.140391, 4.000000, 4.000000, 2.000000, 4.000000, 4.000000
99.000000, 0.000000, 4268.205078, 4343.589844, 4007.179443, 4023.589600, 3992.307617, 16169.000000, 8140.000000, 8355.000000, 0.000000, 0.000000, 0.000000, 2.000000, 285.000000, 1557627179.148391, 4.000000, 4.000000, 2.000000, 4.000000, 4.000000
100.000000, 0.000000, 4268.717773, 4341.025391, 4012.820313, 4018.461426, 3998.974365, 450.000000, 8135.000000, 8343.000000, 0.000000, 0.000000, 0.000000, 2.000000, 293.000000, 1557627179.156391, 4.000000, 4.000000, 2.000000, 4.000000, 4.000000
101.000000, 0.000000, 4280.000000, 4332.307617, 4018.461426, 4019.487061, 4013.333252, 450.000000, 8140.000000, 8336.000000, 0.000000, 0.000000, 0.000000, 2.000000, 301.000000, 1557627179.164391, 4.000000, 4.000000, 2.000000, 4.000000, 4.000000
102.000000, 0.000000, 4273.333008, 4317.948730, 4012.307617, 4020.512695, 4003.589600, 450.000000, 8144.000000, 8337.000000, 0.000000, 0.000000, 0.000000, 2.000000, 308.900024, 1557627179.172291, 4.000000, 4.000000, 2.000000, 4.000000, 4.000000
103.000000, 0.000000, 4256.922852, 4326.666504, 4011.794678, 4013.845947, 3988.205078, 16169.000000, 8137.000000, 8345.000000, 0.000000, 0.000000, 0.000000, 2.000000, 316.900024, 1557627179.180291, 4.000000, 4.000000, 2.000000, 4.000000, 4.000000
104.000000, 0.000000, 4262.563965, 4348.717773, 4014.871582, 4012.820313, 3996.410156, 450.000000, 8143.000000, 8338.000000, 0.000000, 0.000000, 0.000000, 2.000000, 324.900024, 1557627179.188291, 4.000000, 4.000000, 2.000000, 4.000000, 4.000000
105.000000, 0.000000, 4277.948730, 4347.179199, 4012.820313, 4020.000000, 4004.102539, 450.000000, 8143.000000, 8335.000000, 0.000000, 0.000000, 0.000000, 2.000000, 332.600037, 1557627179.195991, 4.000000, 4.000000, 2.000000, 4.000000, 4.000000
106.000000, 0.000000, 4271.794922, 4336.922852, 4004.615234, 4009.230713, 3990.769043, 450.000000, 8146.000000, 8343.000000, 0.000000, 0.000000, 0.000000, 2.000000, 340.400024, 1557627179.203791, 4.000000, 4.000000, 2.000000, 4.000000, 4.000000
107.000000, 0.000000, 4261.025391, 4338.974121, 4003.076904, 4001.025635, 3986.153809, 16169.000000, 8148.000000, 8336.000000, 0.000000, 0.000000, 0.000000, 2.000000, 348.200012, 1557627179.211591, 4.000000, 4.000000, 2.000000, 4.000000, 4.000000
108.000000, 0.000000, 4261.025391, 4340.512695, 4022.563965, 4025.640869, 4003.076904, 450.000000, 8146.000000, 8345.000000, 0.000000, 0.000000, 0.000000, 2.000000, 356.200012, 1557627179.219591, 4.000000, 4.000000, 2.000000, 4.000000, 4.000000
109.000000, 0.000000, 4268.205078, 4340.512695, 4038.974365, 4042.563965, 4021.025635, 450.000000, 8152.000000, 8349.000000, 0.000000, 0.000000, 0.000000, 2.000000, 364.100037, 1557627179.227491, 4.000000, 4.000000, 2.000000, 4.000000, 4.000000
110.000000, 0.000000, 4276.922852, 4343.076660, 4017.948730, 4023.076904, 4007.692139, 450.000000, 8150.000000, 8337.000000, 0.000000, 0.000000, 0.000000, 2.000000, 372.000000, 1557627179.235391, 4.000000, 4.000000, 2.000000, 4.000000, 4.000000
111.000000, 0.000000, 4281.538574, 4343.076660, 3997.948730, 4012.307617, 3984.615234, 16169.000000, 8152.000000, 8335.000000, 0.000000, 0.000000, 0.000000, 2.000000, 380.000000, 1557627179.243391, 4.000000, 4.000000, 2.000000, 4.000000, 4.000000
112.000000, 0.000000, 4279.487305, 4341.538574, 4013.845947, 4017.948730, 3997.435791, 450.000000, 8150.000000, 8348.000000, 0.000000, 0.000000, 0.000000, 2.000000, 388.000000, 1557627179.251391, 4.000000, 4.000000, 2.000000, 4.000000, 4.000000
113.000000, 0.000000, 4275.897461, 4346.153809, 4032.307617, 4012.307617, 4020.000000, 450.000000, 8147.000000, 8347.000000, 0.000000, 0.000000, 0.000000, 2.000000, 395.700012, 1557627179.259091, 4.000000, 4.000000, 2.000000, 4.000000, 4.000000
114.000000, 0.000000, 4269.230469, 4346.153809, 4039.487061, 4014.871582, 4021.538330, 450.000000, 8148.000000, 8339.000000, 0.000000, 0.000000, 0.000000, 2.000000, 403.500000, 1557627179.266891, 4.000000, 4.000000, 2.000000, 4.000000, 4.000000
115.000000, 0.000000, 4262.563965, 4329.230469, 4035.897217, 4022.563965, 4001.025635, 16169.000000, 8148.000000, 8338.000000, 0.000000, 0.000000, 0.000000, 2.000000, 411.300049, 1557627179.274691, 4.000000, 4.000000, 2.000000, 4.000000, 4.000000
116.000000, 0.000000, 4274.358887, 4325.641113, 4022.563965, 4017.435791, 3985.640869, 450.000000, 8141.000000, 8344.000000, 0.000000, 0.000000, 0.000000, 2.000000, 419.100037, 1557627179.282491, 4.000000, 4.000000, 2.000000, 4.000000, 4.000000
117.000000, 0.000000, 4278.974121, 4344.615234, 4023.076904, 4015.897217, 3998.974365, 450.000000, 8140.000000, 8350.000000, 0.000000, 0.000000, 0.000000, 2.000000, 427.000000, 1557627179.290391, 4.000000, 4.000000, 2.000000, 4.000000, 4.000000
118.000000, 0.000000, 4272.307617, 4358.461426, 4034.358887, 4019.487061, 4013.845947, 450.000000, 8136.000000, 8345.000000, 0.000000, 0.000000, 0.000000, 2.000000, 435.000000, 1557627179.298391, 4.000000, 4.000000, 2.000000, 4.000000, 4.000000
119.000000, 0.000000, 4280.512695, 4353.846191, 4018.974365, 4013.845947, 3999.487061, 16169.000000, 8136.000000, 8343.000000, 0.000000, 0.000000, 0.000000, 2.000000, 443.000000, 1557627179.306391, 4.000000, 4.000000, 2.000000, 4.000000, 4.000000
120.000000, 0.000000, 4271.794922, 4331.794922, 3997.435791, 4009.230713, 3984.102539, 450.000000, 8140.000000, 8342.000000, 0.000000, 0.000000, 0.000000, 2.000000, 451.000000, 1557627179.314391, 4.000000, 4.000000, 2.000000, 4.000000, 4.000000
121.000000, 0.000000, 4249.230469, 4325.641113, 4002.051270, 4010.769043, 3989.230713, 450.000000, 8140.000000, 8349.000000, 0.000000, 0.000000, 0.000000, 2.000000, 458.700012, 1557627179.322091, 4.000000, 4.000000, 2.000000, 4.000000, 4.000000
122.000000, 0.000000, 4264.102539, 4349.743652, 4016.923096, 4009.230713, 3991.281982, 450.000000, 8139.000000, 8353.000000, 0.000000, 0.000000, 0.000000, 2.000000, 466.500000, 1557627179.329891, 4.000000, 4.000000, 2.000000, 4.000000, 4.000000
123.000000, 0.000000, 4288.717773, 4352.820313, 4019.487061, 4009.743408, 3991.281982, 16169.000000, 8136.000000, 8353.000000, 0.000000, 0.000000, 0.000000, 2.000000, 474.300049, 1557627179.337691, 4.000000, 4.000000, 2.000000, 4.000000, 4.000000
124.000000, 0.000000, 4265.641113, 4326.153809, 4008.205078, 4009.230713, 3993.845947, 450.000000, 8145.000000, 8347.000000, 0.000000, 0.000000, 0.000000, 2.000000, 482.000000, 1557627179.345391, 4.000000, 4.000000, 2.000000, 4.000000, 4.000000
125.000000, 0.000000, 4239.487305, 4329.743652, 3999.487061, 4004.615234, 3985.128174, 450.000000, 8142.000000, 8358.000000, 0.000000, 0.000000, 0.000000, 2.000000, 490.000024, 1557627179.353391, 4.000000, 4.000000, 2.000000, 4.000000, 4.000000
126.000000, 0.000000, 4244.615234, 4349.743652, 4011.794678, 4009.230713, 3982.051270, 450.000000, 8141.000000, 8362.000000, 0.000000, 0.000000, 0.000000, 2.000000, 498.000025, 1557627179.361391, 4.000000, 4.000000, 2.000000, 4.000000, 4.000000
127.000000, 0.000000, 4248.717773, 4343.076660, 4022.563965, 4012.820313, 3988.205078, 16169.000000, 8151.000000, 8353.000000, 0.000000, 0.000000, 0.000000, 2.000000, 506.000025, 1557627179.369391, 4.000000, 4.000000, 2.000000, 4.000000, 4.000000
128.000000, 0.000000, 4254.358887, 4336.410156, 4012.307617, 4008.205078, 3987.179443, 500.000000, 8149.000000, 8353.000000, 0.000000, 0.000000, 0.000000, 2.000000, 513.900024, 1557627179.377291, 4.000000, 4.000000, 2.000000, 4.000000, 4.000000
0.000000, 0.000000, 4261.538574, 4342.563965, 4008.717773, 4005.640869, 3980.512695, 500.000000, 8150.000000, 8364.000000, 0.000000, 0.000000, 0.000000, 2.000000, 521.900024, 1557627179.385291, 4.000000, 4.000000, 2.000000, 4.000000, 4.000000
1.000000, 0.000000, 4261.538574, 4347.179199, 4007.179443, 3995.384521, 3971.794678, 500.000000, 8156.000000, 8365.000000, 0.000000, 0.000000, 0.000000, 2.000000, 529.700024, 1557627179.393091, 4.000000, 4.000000, 2.000000, 4.000000, 4.000000
2.000000, 0.000000, 4266.153809, 4344.615234, 3999.487061, 3997.435791, 3973.845947, 16196.000000, 8157.000000, 8351.000000, 0.000000, 0.000000, 0.000000, 2.000000, 537.500023, 1557627179.400891, 4.000000, 4.000000, 2.000000, 4.000000, 4.000000
3.000000, 0.000000, 4277.436035, 4346.666504, 4014.358887, 4017.435791, 3993.845947, 500.000000, 8155.000000, 8353.000000, 0.000000, 0.000000, 0.000000, 2.000000, 545.200024, 1557627179.408591, 4.000000, 4.000000, 2.000000, 4.000000, 4.000000
4.000000, 0.000000, 4278.974121, 4355.384277, 4026.666504, 4015.897217, 4005.640869, 16156.000000, 8155.000000, 8357.000000, 0.000000, 0.000000, 0.000000, 2.000000, 553.000023, 1557627179.416391, 4.000000, 4.000000, 2.000000, 4.000000, 4.000000
5.000000, 0.000000, 4276.922852, 4352.307617, 4011.281982, 4013.333252, 4002.051270, 500.000000, 8149.000000, 8361.000000, 0.000000, 0.000000, 0.000000, 2.000000, 561.000023, 1557627179.424391, 4.000000, 4.000000, 2.000000, 4.000000, 4.000000
6.000000, 0.000000, 4284.102539, 4335.897461, 4011.794678, 4030.769043, 4000.000000, 262.000000, 8147.000000, 8360.000000, 0.000000, 0.000000, 0.000000, 2.000000, 569.000023, 1557627179.432391, 4.000000, 4.000000, 2.000000, 4.000000, 4.000000
7.000000, 0.000000, 4280.000000, 4333.846191, 4026.666504, 4025.640869, 3997.948730, 500.000000, 8145.000000, 8366.000000, 0.000000, 0.000000, 0.000000, 2.000000, 576.900024, 1557627179.440291, 4.000000, 4.000000, 2.000000, 4.000000, 4.000000
8.000000, 0.000000, 4266.666504, 4348.717773, 4023.076904, 4011.794678, 4000.000000, 500.000000, 8150.000000, 8361.000000, 0.000000, 0.000000, 0.000000, 2.000000, 584.900024, 1557627179.448291, 4.000000, 4.000000, 2.000000, 4.000000, 4.000000
9.000000, 0.000000, 4263.076660, 4349.230469, 4014.871582, 4023.076904, 4004.615234, 296.000000, 8151.000000, 8361.000000, 0.000000, 0.000000, 0.000000, 2.000000, 592.700027, 1557627179.456091, 4.000000, 4.000000, 2.000000, 4.000000, 4.000000
10.000000, 0.000000, 4265.127930, 4335.384277, 4007.179443, 4024.615234, 3995.897217, 500.000000, 8145.000000, 8365.000000, 0.000000, 0.000000, 0.000000, 2.000000, 600.500023, 1557627179.463891, 4.000000, 4.000000, 2.000000, 4.000000, 4.000000
11.000000, 0.000000, 4261.538574, 4333.846191, 4000.512695, 4012.307617, 3988.717773, 16167.000000, 8147.000000, 8352.000000, 0.000000, 0.000000, 0.000000, 2.000000, 608.200027, 1557627179.471591, 4.000000, 4.000000, 2.000000, 4.000000, 4.000000
12.000000, 0.000000, 4270.769043, 4348.717773, 4012.820313, 4017.435791, 4001.538330, 500.000000, 8141.000000, 8354.000000, 0.000000, 0.000000, 0.000000, 2.000000, 616.100021, 1557627179.479491, 4.000000, 4.000000, 2.000000, 4.000000, 4.000000
13.000000, 0.000000, 4289.743652, 4360.512695, 4029.230713, 4028.717773, 4012.820313, 500.000000, 8138.000000, 8364.000000, 0.000000, 0.000000, 0.000000, 2.000000, 624.100021, 1557627179.487491, 4.000000, 4.000000, 2.000000, 4.000000, 4.000000
14.000000, 0.000000, 4287.179199, 4356.410156, 4029.230713, 4025.640869, 4000.000000, 450.000000, 8140.000000, 8365.000000, 0.000000, 0.000000, 0.000000, 2.000000, 632.100021, 1557627179.495491, 4.000000, 4.000000, 2.000000, 4.000000, 4.000000
15.000000, 0.000000, 4278.974121, 4350.256348, 4031.281982, 4025.128174, 3995.384521, 16167.000000, 8145.000000, 8355.000000, 0.000000, 0.000000, 0.000000, 2.000000, 640.000031, 1557627179.503391, 4.000000, 4.000000, 2.000000, 4.000000, 4.000000
16.000000, 0.000000, 4279.487305, 4345.641113, 4033.845947, 4029.230713, 4019.487061, 0.000000, 8142.000000, 8362.000000, 0.000000, 0.000000, 0.000000, 2.000000, 648.000031, 1557627179.511391, 4.000000, 4.000000, 2.000000, 4.000000, 4.000000
17.000000, 0.000000, 4283.589844, 4349.230469, 4024.102539, 4025.128174, 4033.845947, 0.000000, 8147.000000, 8362.000000, 0.000000, 0.000000, 0.000000, 2.000000, 655.800018, 1557627179.519191, 4.000000, 4.000000, 2.000000, 4.000000, 4.000000
18.000000, 0.000000, 4298.461426, 4361.538574, 4022.563965, 4018.461426, 4023.076904, 0.000000, 8146.000000, 8360.000000, 0.000000, 0.000000, 0.000000, 2.000000, 663.500031, 1557627179.526891, 4.000000, 4.000000, 2.000000, 4.000000, 4.000000
19.000000, 0.000000, 4312.820313, 4364.102539, 4031.281982, 4022.051270, 4015.897217, 0.000000, 8143.000000, 8365.000000, 0.000000, 0.000000, 0.000000, 2.000000, 671.300018, 1557627179.534691, 4.000000, 4.000000, 2.000000, 4.000000, 4.000000
20.000000, 0.000000, 4301.538574, 4355.897461, 4020.512695, 4020.512695, 4000.512695, 0.000000, 8149.000000, 8371.000000, 0.000000, 0.000000, 0.000000, 2.000000, 679.100021, 1557627179.542491, 4.000000, 4.000000, 2.000000, 4.000000, 4.000000
21.000000, 0.000000, 4281.025391, 4352.307617, 4002.563965, 4004.615234, 3969.743408, 0.000000, 8154.000000, 8367.000000, 0.000000, 0.000000, 0.000000, 2.000000, 687.100021, 1557627179.550491, 4.000000, 4.000000, 2.000000, 4.000000, 4.000000
22.000000, 0.000000, 4280.000000, 4362.051270, 4010.769043, 4001.538330, 3978.974365, 0.000000, 8152.000000, 8359.000000, 0.000000, 0.000000, 0.000000, 2.000000, 695.000031, 1557627179.558391, 4.000000, 4.000000, 2.000000, 4.000000, 4.000000
23.000000, 0.000000, 4287.179199, 4373.846191, 4034.871582, 4014.871582, 4020.512695, 0.000000, 8150.000000, 8363.000000, 0.000000, 0.000000, 0.000000, 2.000000, 703.000031, 1557627179.566391, 4.000000, 4.000000, 2.000000, 4.000000, 4.000000
24.000000, 0.000000, 4296.922852, 4367.179199, 4043.076904, 4035.897217, 4028.205078, 0.000000, 8153.000000, 8366.000000, 0.000000, 0.000000, 0.000000, 2.000000, 711.000031, 1557627179.574391, 4.000000, 4.000000, 2.000000, 4.000000, 4.000000
25.000000, 0.000000, 4295.897461, 4344.615234, 4030.256348, 4044.615234, 4007.692139, 0.000000, 8146.000000, 8349.000000, 0.000000, 0.000000, 0.000000, 2.000000, 718.800018, 1557627179.582191, 4.000000, 4.000000, 2.000000, 4.000000, 4.000000
26.000000, 0.000000, 4285.641113, 4341.538574, 4022.563965, 4030.769043, 4001.538330, 0.000000, 8146.000000, 8359.000000, 0.000000, 0.000000, 0.000000, 2.000000, 726.500031, 1557627179.589891, 4.000000, 4.000000, 2.000000, 4.000000, 4.000000
27.000000, 0.000000, 4300.512695, 4362.051270, 4033.333252, 4028.717773, 4019.487061, 0.000000, 8147.000000, 8361.000000, 0.000000, 0.000000, 0.000000, 2.000000, 734.300018, 1557627179.597691, 4.000000, 4.000000, 2.000000, 4.000000, 4.000000
28.000000, 0.000000, 4317.436035, 4368.205078, 4036.923096, 4045.640869, 4032.820313, 0.000000, 8150.000000, 8345.000000, 0.000000, 0.000000, 0.000000, 2.000000, 742.200027, 1557627179.605591, 4.000000, 4.000000, 2.000000, 4.000000, 4.000000
29.000000, 0.000000, 4302.051270, 4363.589844, 4026.666504, 4046.153809, 4021.538330, 0.000000, 8146.000000, 8350.000000, 0.000000, 0.000000, 0.000000, 2.000000, 750.200012, 1557627179.613591, 4.000000, 4.000000, 2.000000, 4.000000, 4.000000
30.000000, 0.000000, 4284.615234, 4366.666504, 4023.589600, 4029.230713, 4011.281982, 0.000000, 8152.000000, 8356.000000, 0.000000, 0.000000, 0.000000, 2.000000, 758.100037, 1557627179.621491, 4.000000, 4.000000, 2.000000, 4.000000, 4.000000
31.000000, 0.000000, 4284.102539, 4360.512695, 4028.205078, 4017.948730, 4009.743408, 0.000000, 8150.000000, 8358.000000, 0.000000, 0.000000, 0.000000, 2.000000, 766.100037, 1557627179.629491, 4.000000, 4.000000, 2.000000, 4.000000, 4.000000
32.000000, 0.000000, 4278.461426, 4352.820313, 4032.307617, 4014.358887, 4004.102539, 0.000000, 8146.000000, 8355.000000, 0.000000, 0.000000, 0.000000, 2.000000, 774.100037, 1557627179.637491, 4.000000, 4.000000, 2.000000, 4.000000, 4.000000
33.000000, 0.000000, 4268.717773, 4366.153809, 4043.589600, 4022.051270, 4008.205078, 0.000000, 8150.000000, 8358.000000, 0.000000, 0.000000, 0.000000, 2.000000, 782.100037, 1557627179.645491, 4.000000, 4.000000, 2.000000, 4.000000, 4.000000
34.000000, 0.000000, 4250.769043, 4364.615234, 4054.358887, 4028.717773, 4020.512695, 0.000000, 8151.000000, 8355.000000, 0.000000, 0.000000, 0.000000, 2.000000, 790.000031, 1557627179.653391, 4.000000, 4.000000, 2.000000, 4.000000, 4.000000
35.000000, 0.000000, 4240.000000, 4341.025391, 4044.615234, 4020.512695, 4021.025635, 0.000000, 8152.000000, 8352.000000, 0.000000, 0.000000, 0.000000, 2.000000, 797.800018, 1557627179.661191, 4.000000, 4.000000, 2.000000, 4.000000, 4.000000
36.000000, 0.000000, 4268.717773, 4343.589844, 4027.179443, 4019.487061, 4007.179443, 0.000000, 8149.000000, 8361.000000, 0.000000, 0.000000, 0.000000, 2.000000, 805.600037, 1557627179.668991, 4.000000, 4.000000, 2.000000, 4.000000, 4.000000
37.000000, 0.000000, 4294.358887, 4351.794922, 4021.538330, 4024.102539, 3993.333252, 0.000000, 8150.000000, 8352.000000, 0.000000, 0.000000, 0.000000, 2.000000, 813.400024, 1557627179.676791, 4.000000, 4.000000, 2.000000, 4.000000, 4.000000
38.000000, 0.000000, 4285.127930, 4336.922852, 4017.948730, 4010.769043, 3990.256348, 0.000000, 8147.000000, 8346.000000, 0.000000, 0.000000, 0.000000, 2.000000, 821.100037, 1557627179.684491, 4.000000, 4.000000, 2.000000, 4.000000, 4.000000
39.000000, 0.000000, 4274.358887, 4330.256348, 4018.974365, 4003.589600, 4003.076904, 0.000000, 8143.000000, 8345.000000, 0.000000, 0.000000, 0.000000, 2.000000, 829.100037, 1557627179.692491, 4.000000, 4.000000, 2.000000, 4.000000, 4.000000
40.000000, 0.000000, 4276.410156, 4342.051270, 4017.435791, 4011.281982, 4005.640869, 0.000000, 8145.000000, 8354.000000, 0.000000, 0.000000, 0.000000, 2.000000, 837.000031, 1557627179.700391, 4.000000, 4.000000, 2.000000, 4.000000, 4.000000
41.000000, 0.000000, 4281.538574, 4341.538574, 4009.743408, 4006.666504, 3994.358887, 0.000000, 8146.000000, 8336.000000, 0.000000, 0.000000, 0.000000, 2.000000, 844.900024, 1557627179.708291, 4.000000, 4.000000, 2.000000, 4.000000, 4.000000
42.000000, 0.000000, 4283.589844, 4336.410156, 4017.435791, 4004.615234, 4007.692139, 0.000000, 8148.000000, 8337.000000, 0.000000, 0.000000, 0.000000, 2.000000, 852.900024, 1557627179.716291, 4.000000, 4.000000, 2.000000, 4.000000, 4.000000
43.000000, 0.000000, 4276.410156, 4347.179199, 4028.717773, 4011.794678, 4016.410156, 0.000000, 8152.000000, 8344.000000, 0.000000, 0.000000, 0.000000, 2.000000, 860.700012, 1557627179.724091, 4.000000, 4.000000, 2.000000, 4.000000, 4.000000
44.000000, 0.000000, 4271.794922, 4349.743652, 4025.128174, 4008.717773, 3995.897217, 0.000000, 8146.000000, 8343.000000, 0.000000, 0.000000, 0.000000, 2.000000, 868.500031, 1557627179.731891, 4.000000, 4.000000, 2.000000, 4.000000, 4.000000
45.000000, 0.000000, 4276.922852, 4345.641113, 4023.589600, 4003.076904, 3982.051270, 0.000000, 8144.000000, 8337.000000, 0.000000, 0.000000, 0.000000, 2.000000, 876.200012, 1557627179.739591, 4.000000, 4.000000, 2.000000, 4.000000, 4.000000
46.000000, 0.000000, 4272.820313, 4351.794922, 4032.820313, 4017.435791, 3990.256348, 0.000000, 8144.000000, 8343.000000, 0.000000, 0.000000, 0.000000, 2.000000, 884.000031, 1557627179.747391, 4.000000, 4.000000, 2.000000, 4.000000, 4.000000
47.000000, 0.000000, 4260.000000, 4349.743652, 4033.845947, 4023.076904, 3993.333252, 0.000000, 8147.000000, 8342.000000, 0.000000, 0.000000, 0.000000, 2.000000, 892.000031, 1557627179.755391, 4.000000, 4.000000, 2.000000, 4.000000, 4.000000
48.000000, 0.000000, 4264.102539, 4333.333008, 4024.102539, 4011.281982, 3983.076904, 0.000000, 8149.000000, 8349.000000, 0.000000, 0.000000, 0.000000, 2.000000, 900.000031, 1557627179.763391, 4.000000, 4.000000, 2.000000, 4.000000, 4.000000
49.000000, 0.000000, 4282.563965, 4336.410156, 4020.512695, 4013.333252, 3982.563965, 0.000000, 8149.000000, 8352.000000, 0.000000, 0.000000, 0.000000, 2.000000, 907.900024, 1557627179.771291, 4.000000, 4.000000, 2.000000, 4.000000, 4.000000
50.000000, 0.000000, 4281.025391, 4354.871582, 4026.666504, 4016.923096, 3997.435791, 0.000000, 8151.000000, 8348.000000, 0.000000, 0.000000, 0.000000, 2.000000, 915.700012, 1557627179.779091, 4.000000, 4.000000, 2.000000, 4.000000, 4.000000
51.000000, 0.000000, 4264.615234, 4348.717773, 4025.640869, 3996.410156, 3993.845947, 0.000000, 8154.000000, 8336.000000, 0.000000, 0.000000, 0.000000, 2.000000, 923.500031, 1557627179.786891, 4.000000, 4.000000, 2.000000, 4.000000, 4.000000
52.000000, 0.000000, 4269.230469, 4332.820313, 4007.692139, 3989.230713, 3969.230713, 0.000000, 8156.000000, 8336.000000, 0.000000, 0.000000, 0.000000, 2.000000, 931.300018, 1557627179.794691, 4.000000, 4.000000, 2.000000, 4.000000, 4.000000
53.000000, 0.000000, 4272.307617, 4332.307617, 4008.717773, 4017.435791, 3983.076904, 0.000000, 8148.000000, 8348.000000, 0.000000, 0.000000, 0.000000, 2.000000, 939.100037, 1557627179.802491, 4.000000, 4.000000, 2.000000, 4.000000, 4.000000
54.000000, 0.000000, 4259.487305, 4347.179199, 4038.461426, 4029.230713, 4018.461426, 0.000000, 8156.000000, 8352.000000, 0.000000, 0.000000, 0.000000, 2.000000, 947.100037, 1557627179.810491, 4.000000, 4.000000, 2.000000, 4.000000, 4.000000
55.000000, 0.000000, 4273.333008, 4365.127930, 4056.410156, 4021.538330, 4019.487061, 0.000000, 8153.000000, 8335.000000, 0.000000, 0.000000, 0.000000, 2.000000, 955.100037, 1557627179.818491, 4.000000, 4.000000, 2.000000, 4.000000, 4.000000
56.000000, 0.000000, 4293.333008, 4353.846191, 4034.871582, 4025.640869, 3998.461426, 0.000000, 8152.000000, 8349.000000, 0.000000, 0.000000, 0.000000, 2.000000, 963.100037, 1557627179.826491, 4.000000, 4.000000, 2.000000, 4.000000, 4.000000
57.000000, 0.000000, 4283.589844, 4336.922852, 4014.358887, 4024.102539, 3992.820313, 0.000000, 8149.000000, 8344.000000, 0.000000, 0.000000, 0.000000, 2.000000, 970.800018, 1557627179.834191, 4.000000, 4.000000, 2.000000, 4.000000, 4.000000
58.000000, 0.000000, 4274.871582, 4351.794922, 4030.256348, 4014.358887, 3999.487061, 0.000000, 8146.000000, 8341.000000, 0.000000, 0.000000, 0.000000, 2.000000, 978.800018, 1557627179.842191, 4.000000, 4.000000, 2.000000, 4.000000, 4.000000
59.000000, 0.000000, 4270.769043, 4357.948730, 4038.974365, 4011.794678, 3997.435791, 0.000000, 8146.000000, 8346.000000, 0.000000, 0.000000, 0.000000, 2.000000, 986.600037, 1557627179.849991, 4.000000, 4.000000, 2.000000, 4.000000, 4.000000
60.000000, 0.000000, 4262.051270, 4336.922852, 4018.461426, 4018.461426, 3986.666504, 0.000000, 8149.000000, 8346.000000, 0.000000, 0.000000, 0.000000, 2.000000, 994.400024, 1557627179.857791, 4.000000, 4.000000, 2.000000, 4.000000, 4.000000
61.000000, 0.000000, 4269.230469, 4337.436035, 4012.307617, 4021.538330, 3989.230713, 0.000000, 8142.000000, 8346.000000, 0.000000, 0.000000, 0.000000, 3.000000, 2.100037, 1557627179.865491, 4.000000, 4.000000, 2.000000, 4.000000, 4.000000
62.000000, 0.000000, 4270.769043, 4346.153809, 4024.615234, 4010.769043, 3999.487061, 0.000000, 8139.000000, 8343.000000, 0.000000, 0.000000, 0.000000, 3.000000, 10.100037, 1557627179.873491, 4.000000, 4.000000, 2.000000, 4.000000, 4.000000
63.000000, 0.000000, 4254.871582, 4328.205078, 4014.358887, 4003.589600, 3991.794678, 0.000000, 8139.000000, 8349.000000, 0.000000, 0.000000, 0.000000, 3.000000, 18.100037, 1557627179.881491, 4.000000, 4.000000, 2.000000, 4.000000, 4.000000
64.000000, 0.000000, 4265.641113, 4330.256348, 4000.000000, 4011.281982, 3987.179443, 500.000000, 8143.000000, 8345.000000, 0.000000, 0.000000, 0.000000, 3.000000, 26.000000, 1557627179.889391, 4.000000, 4.000000, 2.000000, 4.000000, 4.000000
65.000000, 0.000000, 4283.076660, 4362.563965, 4007.692139, 4011.794678, 4001.538330, 500.000000, 8139.000000, 8338.000000, 0.000000, 0.000000, 0.000000, 3.000000, 34.000000, 1557627179.897391, 4.000000, 4.000000, 2.000000, 4.000000, 4.000000
66.000000, 0.000000, 4278.461426, 4372.307617, 4016.923096, 4011.281982, 4005.128174, 16196.000000, 8138.000000, 8345.000000, 0.000000, 0.000000, 0.000000, 3.000000, 42.000000, 1557627179.905391, 4.000000, 4.000000, 2.000000, 4.000000, 4.000000
67.000000, 0.000000, 4283.589844, 4356.410156, 4021.538330, 4019.487061, 3994.871582, 500.000000, 8145.000000, 8349.000000, 0.000000, 0.000000, 0.000000, 3.000000, 49.800049, 1557627179.913191, 4.000000, 4.000000, 2.000000, 4.000000, 4.000000
68.000000, 0.000000, 4284.615234, 4345.127930, 4021.025635, 4010.256348, 3987.692139, 16121.000000, 8142.000000, 8336.000000, 0.000000, 0.000000, 0.000000, 3.000000, 57.500000, 1557627179.920891, 4.000000, 4.000000, 2.000000, 4.000000, 4.000000
69.000000, 0.000000, 4256.410156, 4333.846191, 4016.923096, 4001.025635, 3990.256348, 500.000000, 8140.000000, 8343.000000, 0.000000, 0.000000, 0.000000, 3.000000, 65.300049, 1557627179.928691, 4.000000, 4.000000, 2.000000, 4.000000, 4.000000
70.000000, 0.000000, 4228.205078, 4325.641113, 4013.333252, 4003.589600, 3983.589600, 230.000000, 8139.000000, 8349.000000, 0.000000, 0.000000, 0.000000, 3.000000, 73.100037, 1557627179.936491, 4.000000, 4.000000, 2.000000, 4.000000, 4.000000
71.000000, 0.000000, 4215.897461, 4327.179199, 4002.563965, 3989.230713, 3961.025635, 500.000000, 8144.000000, 8332.000000, 0.000000, 0.000000, 0.000000, 3.000000, 81.100037, 1557627179.944491, 4.000000, 4.000000, 2.000000, 4.000000, 4.000000
72.000000, 0.000000, 4229.230469, 4327.692383, 3996.410156, 3982.563965, 3948.717773, 500.000000, 8148.000000, 8338.000000, 0.000000, 0.000000, 0.000000, 3.000000, 89.000000, 1557627179.952391, 4.000000, 4.000000, 2.000000, 4.000000, 4.000000
73.000000, 0.000000, 4261.025391, 4333.846191, 4015.384521, 4008.717773, 3977.948730, 296.000000, 8151.000000, 8339.000000, 0.000000, 0.000000, 0.000000, 3.000000, 97.000000, 1557627179.960391, 4.000000, 4.000000, 2.000000, 4.000000, 4.000000
74.000000, 0.000000, 4276.922852, 4348.205078, 4032.307617, 4025.640869, 4008.205078, 500.000000, 8151.000000, 8342.000000, 0.000000, 0.000000, 0.000000, 3.000000, 105.000000, 1557627179.968391, 4.000000, 4.000000, 2.000000, 4.000000, 4.000000
75.000000, 0.000000, 4273.333008, 4347.692383, 4018.461426, 4016.410156, 3994.358887, 16170.000000, 8154.000000, 8347.000000, 0.000000, 0.000000, 0.000000, 3.000000, 112.800049, 1557627179.976191, 4.000000, 4.000000, 2.000000, 4.000000, 4.000000
76.000000, 0.000000, 4269.743652, 4330.256348, 4001.538330, 4009.743408, 3984.615234, 500.000000, 8154.000000, 8343.000000, 0.000000, 0.000000, 0.000000, 3.000000, 120.500000, 1557627179.983891, 4.000000, 4.000000, 2.000000, 4.000000, 4.000000
77.000000, 0.000000, 4263.076660, 4330.256348, 4007.692139, 4008.205078, 3998.461426, 500.000000, 8162.000000, 8335.000000, 0.000000, 0.000000, 0.000000, 3.000000, 128.300049, 1557627179.991691, 4.000000, 4.000000, 2.000000, 4.000000, 4.000000
78.000000, 0.000000, 4255.384277, 4343.076660, 4006.666504, 4002.051270, 3989.230713, 450.000000, 8152.000000, 8329.000000, 0.000000, 0.000000, 0.000000, 3.000000, 136.100037, 1557627179.999491, 4.000000, 4.000000, 2.000000, 4.000000, 4.000000
79.000000, 0.000000, 4263.589844, 4346.666504, 3992.307617, 4004.615234, 3970.256348, 16170.000000, 8151.000000, 8345.000000, 0.000000, 0.000000, 0.000000, 3.000000, 144.100037, 1557627180.007491, 4.000000, 4.000000, 2.000000, 4.000000, 4.000000
80.000000, 0.000000, 4265.127930, 4338.461426, 4006.153809, 4010.769043, 3980.000000, 450.000000, 8146.000000, 8354.000000, 0.000000, 0.000000, 0.000000, 3.000000, 152.000000, 1557627180.015391, 4.000000, 4.000000, 2.000000, 4.000000, 4.000000
81.000000, 0.000000, 4248.717773, 4336.410156, 4029.230713, 4010.769043, 3995.384521, 450.000000, 8144.000000, 8341.000000, 0.000000, 0.000000, 0.000000, 3.000000, 160.000000, 1557627180.023391, 4.000000, 4.000000, 2.000000, 4.000000, 4.000000
82.000000, 0.000000, 4241.538574, 4348.205078, 4029.230713, 4010.769043, 3991.794678, 450.000000, 8149.000000, 8337.000000, 0.000000, 0.000000, 0.000000, 3.000000, 168.000000, 1557627180.031391, 4.000000, 4.000000, 2.000000, 4.000000, 4.000000
83.000000, 0.000000, 4256.922852, 4349.743652, 4024.615234, 4010.256348, 3977.435791, 16170.000000, 8147.000000, 8349.000000, 0.000000, 0.000000, 0.000000, 3.000000, 176.000000, 1557627180.039391, 4.000000, 4.000000, 2.000000, 4.000000, 4.000000
84.000000, 0.000000, 4268.717773, 4341.025391, 4027.692139, 4002.563965, 3965.128174, 450.000000, 8150.000000, 8352.000000, 0.000000, 0.000000, 0.000000, 3.000000, 183.700012, 1557627180.047091, 4.000000, 4.000000, 2.000000, 4.000000, 4.000000
85.000000, 0.000000, 4257.436035, 4333.846191, 4030.769043, 4001.538330, 3983.589600, 450.000000, 8150.000000, 8336.000000, 0.000000, 0.000000, 0.000000, 3.000000, 191.500000, 1557627180.054891, 4.000000, 4.000000, 2.000000, 4.000000, 4.000000
86.000000, 0.000000, 4240.512695, 4323.589844, 4022.563965, 4010.256348, 3998.461426, 450.000000, 8146.000000, 8347.000000, 0.000000, 0.000000, 0.000000, 3.000000, 199.300049, 1557627180.062691, 4.000000, 4.000000, 2.000000, 4.000000, 4.000000
87.000000, 0.000000, 4234.358887, 4321.025391, 4004.615234, 4003.589600, 3969.743408, 16170.000000, 8142.000000, 8350.000000, 0.000000, 0.000000, 0.000000, 3.000000, 207.100037, 1557627180.070491, 4.000000, 4.000000, 2.000000, 4.000000, 4.000000
88.000000, 0.000000, 4241.538574, 4334.358887, 3996.923096, 3986.153809, 3948.717773, 450.000000, 8145.000000, 8351.000000, 0.000000, 0.000000, 0.000000, 3.000000, 215.100037, 1557627180.078491, 4.000000, 4.000000, 2.000000, 4.000000, 4.000000
89.000000, 0.000000, 4244.615234, 4335.897461, 4009.230713, 3984.102539, 3964.615234, 450.000000, 8149.000000, 8363.000000, 0.000000, 0.000000, 0.000000, 3.000000, 223.100037, 1557627180.086491, 4.000000, 4.000000, 2.000000, 4.000000, 4.000000
90.000000, 0.000000, 4231.281738, 4324.615234, 4013.333252, 3995.384521, 3980.000000, 450.000000, 8144.000000, 8358.000000, 0.000000, 0.000000, 0.000000, 3.000000, 231.100037, 1557627180.094491, 4.000000, 4.000000, 2.000000, 4.000000, 4.000000
91.000000, 0.000000, 4227.692383, 4329.230469, 4003.076904, 4001.538330, 3975.897217, 16170.000000, 8144.000000, 8355.000000, 0.000000, 0.000000, 0.000000, 3.000000, 239.000000, 1557627180.102391, 4.000000, 4.000000, 2.000000, 4.000000, 4.000000
92.000000, 0.000000, 4235.384277, 4334.358887, 4003.076904, 4000.512695, 3971.281982, 450.000000, 8142.000000, 8363.000000, 0.000000, 0.000000, 0.000000, 3.000000, 246.800049, 1557627180.110191, 4.000000, 4.000000, 2.000000, 4.000000, 4.000000
93.000000, 0.000000, 4231.281738, 4327.179199, 4001.538330, 3995.384521, 3970.769043, 450.000000, 8149.000000, 8367.000000, 0.000000, 0.000000, 0.000000, 3.000000, 254.600037, 1557627180.117991, 4.000000, 4.000000, 2.000000, 4.000000, 4.000000
94.000000, 0.000000, 4231.281738, 4327.179199, 3997.948730, 3989.743408, 3972.820313, 450.000000, 8150.000000, 8353.000000, 0.000000, 0.000000, 0.000000, 3.000000, 262.400024, 1557627180.125791, 4.000000, 4.000000, 2.000000, 4.000000, 4.000000
95.000000, 0.000000, 4245.127930, 4336.410156, 4006.666504, 3996.410156, 3972.307617, 16170.000000, 8153.000000, 8348.000000, 0.000000, 0.000000, 0.000000, 3.000000, 270.100037, 1557627180.133491, 4.000000, 4.000000, 2.000000, 4.000000, 4.000000
96.000000, 0.000000, 4254.871582, 4331.794922, 4003.076904, 4001.538330, 3973.333252, 450.000000, 8148.000000, 8355.000000, 0.000000, 0.000000, 0.000000, 3.000000, 278.000000, 1557627180.141391, 4.000000, 4.000000, 2.000000, 4.000000, 4.000000
97.000000, 0.000000, 4247.179199, 4308.717773, 3988.205078, 3995.897217, 3978.461426, 450.000000, 8152.000000, 8360.000000, 0.000000, 0.000000, 0.000000, 3.000000, 286.000000, 1557627180.149391, 4.000000, 4.000000, 2.000000, 4.000000, 4.000000
98.000000, 0.000000, 4237.948730, 4301.025391, 3982.563965, 3989.230713, 3973.333252, 450.000000, 8157.000000, 8350.000000, 0.000000, 0.000000, 0.000000, 3.000000, 294.000000, 1557627180.157391, 4.000000, 4.000000, 2.000000, 4.000000, 4.000000
99.000000, 0.000000, 4234.358887, 4306.153809, 3989.230713, 3992.820313, 3973.333252, 16170.000000, 8142.000000, 8352.000000, 0.000000, 0.000000, 0.000000, 3.000000, 301.900024, 1557627180.165291, 4.000000, 4.000000, 2.000000, 4.000000, 4.000000
100.000000, 0.000000, 4233.846191, 4302.051270, 3998.461426, 3993.845947, 3985.128174, 450.000000, 8142.000000, 8357.000000, 0.000000, 0.000000, 0.000000, 3.000000, 309.900024, 1557627180.173291, 4.000000, 4.000000, 2.000000, 4.000000, 4.000000
101.000000, 0.000000, 4235.384277, 4299.487305, 4002.563965, 3995.384521, 3981.538330, 450.000000, 8146.000000, 8350.000000, 0.000000, 0.000000, 0.000000, 3.000000, 317.700012, 1557627180.181091, 4.000000, 4.000000, 2.000000, 4.000000, 4.000000
102.000000, 0.000000, 4224.102539, 4298.461426, 4002.051270, 4001.538330, 3958.974365, 450.000000, 8144.000000, 8347.000000, 0.000000, 0.000000, 0.000000, 3.000000, 325.500000, 1557627180.188891, 4.000000, 4.000000, 2.000000, 4.000000, 4.000000
103.000000, 0.000000, 4206.153809, 4293.333008, 3997.948730, 3997.435791, 3946.153809, 16170.000000, 8146.000000, 8352.000000, 0.000000, 0.000000, 0.000000, 3.000000, 333.200012, 1557627180.196591, 4.000000, 4.000000, 2.000000, 4.000000, 4.000000
104.000000, 0.000000, 4200.512695, 4295.897461, 3983.589600, 3982.051270, 3938.974365, 450.000000, 8150.000000, 8350.000000, 0.000000, 0.000000, 0.000000, 3.000000, 341.100037, 1557627180.204491, 4.000000, 4.000000, 2.000000, 4.000000, 4.000000
105.000000, 0.000000, 4202.563965, 4309.230469, 3973.333252, 3974.871582, 3927.692139, 450.000000, 8148.000000, 8348.000000, 0.000000, 0.000000, 0.000000, 3.000000, 349.100037, 1557627180.212491, 4.000000, 4.000000, 2.000000, 4.000000, 4.000000
106.000000, 0.000000, 4196.922852, 4306.666504, 3977.948730, 3971.794678, 3923.589600, 450.000000, 8148.000000, 8350.000000, 0.000000, 0.000000, 0.000000, 3.000000, 357.100037, 1557627180.220491, 4.000000, 4.000000, 2.000000, 4.000000, 4.000000
107.000000, 0.000000, 4193.333008, 4292.820313, 3977.948730, 3960.000000, 3923.076904, 16170.000000, 8151.000000, 8340.000000, 0.000000, 0.000000, 0.000000, 3.000000, 365.000000, 1557627180.228391, 4.000000, 4.000000, 2.000000, 4.000000, 4.000000
108.000000, 0.000000, 4200.000000, 4301.538574, 3979.487061, 3962.563965, 3930.769043, 450.000000, 8152.000000, 8342.000000, 0.000000, 0.000000, 0.000000, 3.000000, 373.000000, 1557627180.236391, 4.000000, 4.000000, 2.000000, 4.000000, 4.000000
109.000000, 0.000000, 4196.922852, 4309.743652, 3983.589600, 3971.794678, 3941.538330, 450.000000, 8147.000000, 8351.000000, 0.000000, 0.000000, 0.000000, 3.000000, 380.800049, 1557627180.244191, 4.000000, 4.000000, 2.000000, 4.000000, 4.000000
110.000000, 0.000000, 4194.358887, 4298.974121, 3979.487061, 3971.281982, 3944.615234, 450.000000, 8155.000000, 8358.000000, 0.000000, 0.000000, 0.000000, 3.000000, 388.500000, 1557627180.251891, 4.000000, 4.000000, 2.000000, 4.000000, 4.000000
111.000000, 0.000000, 4210.256348, 4290.769043, 3969.230713, 3972.820313, 3939.487061, 16170.000000, 8155.000000, 8346.000000, 0.000000, 0.000000, 0.000000, 3.000000, 396.300049, 1557627180.259691, 4.000000, 4.000000, 2.000000, 4.000000, 4.000000
112.000000, 0.000000, 4215.897461, 4301.538574, 3957.948730, 3971.794678, 3932.307617, 450.000000, 8153.000000, 8346.000000, 0.000000, 0.000000, 0.000000, 3.000000, 404.100037, 1557627180.267491, 4.000000, 4.000000, 2.000000, 4.000000, 4.000000
113.000000, 0.000000, 4197.948730, 4293.846191, 3961.025635, 3970.256348, 3937.948730, 450.000000, 8150.000000, 8358.000000, 0.000000, 0.000000, 0.000000, 3.000000, 412.100037, 1557627180.275491, 4.000000, 4.000000, 2.000000, 4.000000, 4.000000
114.000000, 0.000000, 4196.922852, 4275.897461, 3978.974365, 3985.128174, 3956.923096, 450.000000, 8155.000000, 8354.000000, 0.000000, 0.000000, 0.000000, 3.000000, 420.000000, 1557627180.283391, 4.000000, 4.000000, 2.000000, 4.000000, 4.000000
115.000000, 0.000000, 4204.102539, 4289.230469, 3984.615234, 3994.358887, 3962.051270, 16170.000000, 8152.000000, 8352.000000, 0.000000, 0.000000, 0.000000, 3.000000, 428.000000, 1557627180.291391, 4.000000, 4.000000, 2.000000, 4.000000, 4.000000
116.000000, 0.000000, 4198.974121, 4312.307617, 3972.820313, 3981.025635, 3952.307617, 450.000000, 8148.000000, 8357.000000, 0.000000, 0.000000, 0.000000, 3.000000, 436.000000, 1557627180.299391, 4.000000, 4.000000, 2.000000, 4.000000, 4.000000
117.000000, 0.000000, 4209.743652, 4309.230469, 3970.769043, 3986.153809, 3952.820313, 450.000000, 8152.000000, 8348.000000, 0.000000, 0.000000, 0.000000, 3.000000, 443.800049, 1557627180.307191, 4.000000, 4.000000, 2.000000, 4.000000, 4.000000
118.000000, 0.000000, 4221.025391, 4297.436035, 3972.820313, 3997.435791, 3949.743408, 450.000000, 8145.000000, 8359.000000, 0.000000, 0.000000, 0.000000, 3.000000, 451.500000, 1557627180.314891, 4.000000, 4.000000, 2.000000, 4.000000, 4.000000
119.000000, 0.000000, 4207.692383, 4303.076660, 3966.666504, 3978.461426, 3940.000000, 16170.000000, 8131.000000, 8362.000000, 0.000000, 0.000000, 0.000000, 3.000000, 459.300049, 1557627180.322691, 4.000000, 4.000000, 2.000000, 4.000000, 4.000000
120.000000, 0.000000, 4203.076660, 4308.717773, 3964.102539, 3962.051270, 3937.948730, 450.000000, 8129.000000, 8349.000000, 0.000000, 0.000000, 0.000000, 3.000000, 467.100037, 1557627180.330491, 4.000000, 4.000000, 2.000000, 4.000000, 4.000000
121.000000, 0.000000, 4203.076660, 4295.897461, 3968.717773, 3973.333252, 3933.333252, 450.000000, 8131.000000, 8347.000000, 0.000000, 0.000000, 0.000000, 3.000000, 475.100037, 1557627180.338491, 4.000000, 4.000000, 2.000000, 4.000000, 4.000000
122.000000, 0.000000, 4185.641113, 4286.666504, 3965.640869, 3977.948730, 3917.435791, 450.000000, 8126.000000, 8353.000000, 0.000000, 0.000000, 0.000000, 3.000000, 483.000000, 1557627180.346391, 4.000000, 4.000000, 2.000000, 4.000000, 4.000000
123.000000, 0.000000, 4182.051270, 4291.281738, 3964.102539, 3964.615234, 3916.923096, 16170.000000, 8125.000000, 8352.000000, 0.000000, 0.000000, 0.000000, 3.000000, 491.000024, 1557627180.354391, 4.000000, 4.000000, 2.000000, 4.000000, 4.000000
124.000000, 0.000000, 4196.922852, 4297.436035, 3976.923096, 3966.666504, 3941.025635, 450.000000, 8124.000000, 8331.000000, 0.000000, 0.000000, 0.000000, 3.000000, 499.000025, 1557627180.362391, 4.000000, 4.000000, 2.000000, 4.000000, 4.000000
125.000000, 0.000000, 4204.102539, 4297.436035, 3980.000000, 3982.051270, 3951.794678, 450.000000, 8121.000000, 8333.000000, 0.000000, 0.000000, 0.000000, 3.000000, 507.000025, 1557627180.370391, 4.000000, 4.000000, 2.000000, 4.000000, 4.000000
126.000000, 0.000000, 4206.666504, 4300.512695, 3967.692139, 3979.487061, 3936.410156, 450.000000, 8116.000000, 8345.000000, 0.000000, 0.000000, 0.000000, 3.000000, 514.700024, 1557627180.378091, 4.000000, 4.000000, 2.000000, 4.000000, 4.000000
127.000000, 0.000000, 4201.538574, 4297.948730, 3965.640869, 3970.769043, 3923.589600, 16170.000000, 8112.000000, 8345.000000, 0.000000, 0.000000, 0.000000, 3.000000, 522.500023, 1557627180.385891, 4.000000, 4.000000, 2.000000, 4.000000, 4.000000
128.000000, 0.000000, 4189.743652, 4285.641113, 3969.743408, 3973.333252, 3928.205078, 500.000000, 8110.000000, 8336.000000, 0.000000, 0.000000, 0.000000, 3.000000, 530.300026, 1557627180.393691, 4.000000, 4.000000, 2.000000, 4.000000, 4.000000
0.000000, 0.000000, 4188.205078, 4273.846191, 3952.820313, 3968.205078, 3920.512695, 500.000000, 8111.000000, 8338.000000, 0.000000, 0.000000, 0.000000, 3.000000, 538.100025, 1557627180.401491, 4.000000, 4.000000, 2.000000, 4.000000, 4.000000
1.000000, 0.000000, 4180.000000, 4272.307617, 3934.871582, 3951.794678, 3905.640869, 500.000000, 8117.000000, 8336.000000, 0.000000, 0.000000, 0.000000, 3.000000, 546.000023, 1557627180.409391, 4.000000, 4.000000, 2.000000, 4.000000, 4.000000
2.000000, 0.000000, 4172.307617, 4282.051270, 3947.179443, 3950.769043, 3916.410156, 16186.000000, 8113.000000, 8342.000000, 0.000000, 0.000000, 0.000000, 3.000000, 554.000023, 1557627180.417391, 4.000000, 4.000000, 2.000000, 4.000000, 4.000000
3.000000, 0.000000, 4191.794922, 4292.307617, 3971.794678, 3968.717773, 3937.435791, 500.000000, 8114.000000, 8344.000000, 0.000000, 0.000000, 0.000000, 3.000000, 562.000023, 1557627180.425391, 4.000000, 4.000000, 2.000000, 4.000000, 4.000000
4.000000, 0.000000, 4210.769043, 4294.358887, 3969.230713, 3977.435791, 3940.000000, 16118.000000, 8122.000000, 8337.000000, 0.000000, 0.000000, 0.000000, 3.000000, 569.900024, 1557627180.433291, 4.000000, 4.000000, 2.000000, 4.000000, 4.000000
5.000000, 0.000000, 4202.563965, 4289.743652, 3956.410156, 3973.845947, 3936.410156, 500.000000, 8132.000000, 8339.000000, 0.000000, 0.000000, 0.000000, 3.000000, 577.700027, 1557627180.441091, 4.000000, 4.000000, 2.000000, 4.000000, 4.000000
6.000000, 0.000000, 4198.974121, 4285.641113, 3969.230713, 3972.820313, 3944.102539, 260.000000, 8130.000000, 8339.000000, 0.000000, 0.000000, 0.000000, 3.000000, 585.500023, 1557627180.448891, 4.000000, 4.000000, 2.000000, 4.000000, 4.000000
7.000000, 0.000000, 4203.589844, 4278.974121, 3977.948730, 3972.820313, 3937.435791, 500.000000, 8137.000000, 8342.000000, 0.000000, 0.000000, 0.000000, 3.000000, 593.300026, 1557627180.456691, 4.000000, 4.000000, 2.000000, 4.000000, 4.000000
8.000000, 0.000000, 4205.127930, 4276.410156, 3956.923096, 3963.076904, 3910.256348, 500.000000, 8144.000000, 8327.000000, 0.000000, 0.000000, 0.000000, 3.000000, 601.000023, 1557627180.464391, 4.000000, 4.000000, 2.000000, 4.000000, 4.000000
9.000000, 0.000000, 4209.743652, 4293.846191, 3952.820313, 3957.948730, 3904.615234, 296.000000, 8143.000000, 8333.000000, 0.000000, 0.000000, 0.000000, 3.000000, 609.000023, 1557627180.472391, 4.000000, 4.000000, 2.000000, 4.000000, 4.000000
10.000000, 0.000000, 4208.205078, 4295.897461, 3972.307617, 3972.820313, 3931.281982, 500.000000, 8145.000000, 8339.000000, 0.000000, 0.000000, 0.000000, 3.000000, 617.000031, 1557627180.480391, 4.000000, 4.000000, 2.000000, 4.000000, 4.000000
11.000000, 0.000000, 4209.230469, 4282.051270, 3982.051270, 3989.230713, 3950.256348, 16178.000000, 8154.000000, 8331.000000, 0.000000, 0.000000, 0.000000, 3.000000, 625.000031, 1557627180.488391, 4.000000, 4.000000, 2.000000, 4.000000, 4.000000
12.000000, 0.000000, 4217.436035, 4285.641113, 3974.358887, 3980.512695, 3938.974365, 500.000000, 8156.000000, 8322.000000, 0.000000, 0.000000, 0.000000, 3.000000, 632.900024, 1557627180.496291, 4.000000, 4.000000, 2.000000, 4.000000, 4.000000
13.000000, 0.000000, 4202.051270, 4289.743652, 3972.307617, 3961.538330, 3924.102539, 500.000000, 8165.000000, 8324.000000, 0.000000, 0.000000, 0.000000, 3.000000, 640.700027, 1557627180.504091, 4.000000, 4.000000, 2.000000, 4.000000, 4.000000
14.000000, 0.000000, 4188.717773, 4288.205078, 3995.897217, 3973.333252, 3940.000000, 450.000000, 8171.000000, 8330.000000, 0.000000, 0.000000, 0.000000, 3.000000, 648.500031, 1557627180.511891, 4.000000, 4.000000, 2.000000, 4.000000, 4.000000
15.000000, 0.000000, 4217.948730, 4301.025391, 4005.128174, 3991.794678, 3961.025635, 16178.000000, 8166.000000, 8330.000000, 0.000000, 0.000000, 0.000000, 3.000000, 656.300018, 1557627180.519691, 4.000000, 4.000000, 2.000000, 4.000000, 4.000000
16.000000, 0.000000, 4238.461426, 4307.179199, 3979.487061, 3982.563965, 3949.230713, 0.000000, 8161.000000, 8329.000000, 0.000000, 0.000000, 0.000000, 3.000000, 664.000031, 1557627180.527391, 4.000000, 4.000000, 2.000000, 4.000000, 4.000000
17.000000, 0.000000, 4222.051270, 4294.358887, 3968.717773, 3977.435791, 3939.487061, 0.000000, 8164.000000, 8323.000000, 0.000000, 0.000000, 0.000000, 3.000000, 672.000031, 1557627180.535391, 4.000000, 4.000000, 2.000000, 4.000000, 4.000000
18.000000, 0.000000, 4210.769043, 4288.205078, 3972.820313, 3984.615234, 3946.153809, 0.000000, 8163.000000, 8329.000000, 0.000000, 0.000000, 0.000000, 3.000000, 680.000031, 1557627180.543391, 4.000000, 4.000000, 2.000000, 4.000000, 4.000000
19.000000, 0.000000, 4212.307617, 4284.615234, 3963.076904, 3986.153809, 3938.461426, 0.000000, 8165.000000, 8331.000000, 0.000000, 0.000000, 0.000000, 3.000000, 688.000031, 1557627180.551391, 4.000000, 4.000000, 2.000000, 4.000000, 4.000000
20.000000, 0.000000, 4207.179199, 4274.871582, 3959.487061, 3983.589600, 3920.512695, 0.000000, 8160.000000, 8338.000000, 0.000000, 0.000000, 0.000000, 3.000000, 695.900024, 1557627180.559291, 4.000000, 4.000000, 2.000000, 4.000000, 4.000000
21.000000, 0.000000, 4192.820313, 4281.025391, 3973.333252, 3973.333252, 3920.000000, 0.000000, 8162.000000, 8329.000000, 0.000000, 0.000000, 0.000000, 3.000000, 703.900024, 1557627180.567291, 4.000000, 4.000000, 2.000000, 4.000000, 4.000000
22.000000, 0.000000, 4188.205078, 4299.487305, 3986.153809, 3975.384521, 3936.923096, 0.000000, 8162.000000, 8327.000000, 0.000000, 0.000000, 0.000000, 3.000000, 711.700027, 1557627180.575091, 4.000000, 4.000000, 2.000000, 4.000000, 4.000000
23.000000, 0.000000, 4208.717773, 4306.666504, 3990.256348, 3996.923096, 3949.230713, 0.000000, 8154.000000, 8340.000000, 0.000000, 0.000000, 0.000000, 3.000000, 719.500031, 1557627180.582891, 4.000000, 4.000000, 2.000000, 4.000000, 4.000000
24.000000, 0.000000, 4231.794922, 4306.666504, 3983.589600, 3996.410156, 3940.512695, 0.000000, 8147.000000, 8339.000000, 0.000000, 0.000000, 0.000000, 3.000000, 727.200027, 1557627180.590591, 4.000000, 4.000000, 2.000000, 4.000000, 4.000000
25.000000, 0.000000, 4232.820313, 4316.410156, 3978.974365, 3982.563965, 3942.563965, 0.000000, 8148.000000, 8337.000000, 0.000000, 0.000000, 0.000000, 3.000000, 735.200027, 1557627180.598591, 4.000000, 4.000000, 2.000000, 4.000000, 4.000000
26.000000, 0.000000, 4230.769043, 4323.589844, 3985.640869, 4001.025635, 3964.615234, 0.000000, 8138.000000, 8344.000000, 0.000000, 0.000000, 0.000000, 3.000000, 743.200027, 1557627180.606591, 4.000000, 4.000000, 2.000000, 4.000000, 4.000000
27.000000, 0.000000, 4233.333008, 4306.153809, 3977.948730, 4002.051270, 3950.256348, 0.000000, 8135.000000, 8351.000000, 0.000000, 0.000000, 0.000000, 3.000000, 751.000031, 1557627180.614391, 4.000000, 4.000000, 2.000000, 4.000000, 4.000000
28.000000, 0.000000, 4223.589844, 4285.641113, 3965.128174, 3967.179443, 3919.487061, 0.000000, 8129.000000, 8344.000000, 0.000000, 0.000000, 0.000000, 3.000000, 759.000031, 1557627180.622391, 4.000000, 4.000000, 2.000000, 4.000000, 4.000000
29.000000, 0.000000, 4216.922852, 4294.871582, 3985.128174, 3974.871582, 3943.589600, 0.000000, 8124.000000, 8351.000000, 0.000000, 0.000000, 0.000000, 3.000000, 767.000031, 1557627180.630391, 4.000000, 4.000000, 2.000000, 4.000000, 4.000000
30.000000, 0.000000, 4226.153809, 4312.820313, 4000.512695, 4009.743408, 3974.358887, 0.000000, 8126.000000, 8352.000000, 0.000000, 0.000000, 0.000000, 3.000000, 774.800018, 1557627180.638191, 4.000000, 4.000000, 2.000000, 4.000000, 4.000000
31.000000, 0.000000, 4227.692383, 4304.615234, 3990.769043, 4004.102539, 3962.051270, 0.000000, 8131.000000, 8342.000000, 0.000000, 0.000000, 0.000000, 3.000000, 782.500031, 1557627180.645891, 4.000000, 4.000000, 2.000000, 4.000000, 4.000000
32.000000, 0.000000, 4215.384277, 4293.333008, 3989.743408, 3987.179443, 3951.794678, 0.000000, 8128.000000, 8347.000000, 0.000000, 0.000000, 0.000000, 3.000000, 790.300018, 1557627180.653691, 4.000000, 4.000000, 2.000000, 4.000000, 4.000000
33.000000, 0.000000, 4215.384277, 4302.051270, 3987.692139, 3995.897217, 3955.384521, 0.000000, 8138.000000, 8353.000000, 0.000000, 0.000000, 0.000000, 3.000000, 798.100037, 1557627180.661491, 4.000000, 4.000000, 2.000000, 4.000000, 4.000000
34.000000, 0.000000, 4231.794922, 4314.871582, 3981.538330, 4010.256348, 3956.923096, 0.000000, 8138.000000, 8347.000000, 0.000000, 0.000000, 0.000000, 3.000000, 806.100037, 1557627180.669491, 4.000000, 4.000000, 2.000000, 4.000000, 4.000000
35.000000, 0.000000, 4239.487305, 4319.487305, 3994.358887, 4022.051270, 3967.179443, 0.000000, 8135.000000, 8351.000000, 0.000000, 0.000000, 0.000000, 3.000000, 814.000031, 1557627180.677391, 4.000000, 4.000000, 2.000000, 4.000000, 4.000000
36.000000, 0.000000, 4228.717773, 4306.153809, 4000.512695, 4020.000000, 3972.307617, 0.000000, 8138.000000, 8358.000000, 0.000000, 0.000000, 0.000000, 3.000000, 822.000031, 1557627180.685391, 4.000000, 4.000000, 2.000000, 4.000000, 4.000000
37.000000, 0.000000, 4225.127930, 4293.846191, 3981.025635, 4005.128174, 3955.897461, 0.000000, 8147.000000, 8367.000000, 0.000000, 0.000000, 0.000000, 3.000000, 830.000031, 1557627180.693391, 4.000000, 4.000000, 2.000000, 4.000000, 4.000000
38.000000, 0.000000, 4236.922852, 4307.692383, 3971.794678, 4007.692139, 3943.076904, 0.000000, 8145.000000, 8355.000000, 0.000000, 0.000000, 0.000000, 3.000000, 838.000031, 1557627180.701391, 4.000000, 4.000000, 2.000000, 4.000000, 4.000000
39.000000, 0.000000, 4242.051270, 4319.487305, 3983.076904, 4019.487061, 3950.256348, 0.000000, 8142.000000, 8364.000000, 0.000000, 0.000000, 0.000000, 3.000000, 845.700012, 1557627180.709091, 4.000000, 4.000000, 2.000000, 4.000000, 4.000000
40.000000, 0.000000, 4242.051270, 4307.692383, 3990.256348, 4016.410156, 3960.000000, 0.000000, 8139.000000, 8363.000000, 0.000000, 0.000000, 0.000000, 3.000000, 853.500031, 1557627180.716891, 4.000000, 4.000000, 2.000000, 4.000000, 4.000000
41.000000, 0.000000, 4248.717773, 4302.051270, 3987.179443, 4008.717773, 3958.974365, 0.000000, 8143.000000, 8367.000000, 0.000000, 0.000000, 0.000000, 3.000000, 861.300018, 1557627180.724691, 4.000000, 4.000000, 2.000000, 4.000000, 4.000000
42.000000, 0.000000, 4241.025391, 4312.820313, 3988.717773, 4002.563965, 3955.897461, 0.000000, 8141.000000, 8364.000000, 0.000000, 0.000000, 0.000000, 3.000000, 869.200012, 1557627180.732591, 4.000000, 4.000000, 2.000000, 4.000000, 4.000000
