title:bhushan sad1, recorded:12.05.19 06.27.19, timestamp started:2019-05-12T06:27:19.989219+05:30, sampling:128, subject:, labels:COUNTER INTERPOLATED AF3 T7 Pz T8 AF4 RAW_CQ GYROX GYROY MARKER MARKER_HARDWARE SYNC TIME_STAMP_s TIME_STAMP_ms TimeStamp CQ_AF3 CQ_T7 CQ_Pz CQ_T8 CQ_AF4, chan:20, samples:15425, units:emotiv
35.000000, 0.000000, 4002.051270, 4383.589844, 4217.948730, 3992.307617, 4250.769043, 0.000000, 8143.000000, 8343.000000, 1.000000, 1.000000, 0.000000, 0.000000, 0.000000, 1557622639.989220, 4.000000, 4.000000, 4.000000, 4.000000, 4.000000
36.000000, 0.000000, 3978.461426, 4358.974121, 4238.974121, 3995.897217, 4266.153809, 0.000000, 8151.000000, 8351.000000, 0.000000, 0.000000, 0.000000, 0.000000, 7.899994, 1557622639.997120, 4.000000, 4.000000, 4.000000, 4.000000, 4.000000
37.000000, 0.000000, 3993.845947, 4351.794922, 4226.153809, 4004.102539, 4280.512695, 0.000000, 8156.000000, 8341.000000, 0.000000, 0.000000, 0.000000, 0.000000, 15.699982, 1557622640.004920, 4.000000, 4.000000, 4.000000, 4.000000, 4.000000
38.000000, 0.000000, 4028.717773, 4364.102539, 4221.025391, 4011.794678, 4280.000000, 0.000000, 8156.000000, 8339.000000, 0.000000, 0.000000, 0.000000, 0.000000, 23.699982, 1557622640.012920, 4.000000, 4.000000, 4.000000, 4.000000, 4.000000
39.000000, 0.000000, 4034.871582, 4371.281738, 4220.512695, 4001.538330, 4258.974121, 0.000000, 8152.000000, 8351.000000, 0.000000, 0.000000, 0.000000, 0.000000, 31.699982, 1557622640.020920, 4.000000, 4.000000, 4.000000, 4.000000, 4.000000
40.000000, 0.000000, 4017.435791, 4361.025391, 4200.512695, 3984.102539, 4245.127930, 0.000000, 8147.000000, 8363.000000, 0.000000, 0.000000, 0.000000, 0.000000, 39.599976, 1557622640.028820, 4.000000, 4.000000, 4.000000, 4.000000, 4.000000
41.000000, 0.000000, 4015.897217, 4347.179199, 4211.794922, 3989.230713, 4272.307617, 0.000000, 8151.000000, 8352.000000, 0.000000, 0.000000, 0.000000, 0.000000, 47.399994, 1557622640.036620, 4.000000, 4.000000, 4.000000, 4.000000, 4.000000
42.000000, 0.000000, 4047.692139, 4353.333008, 4221.025391, 4007.692139, 4291.794922, 0.000000, 8149.000000, 8361.000000, 0.000000, 0.000000, 0.000000, 0.000000, 55.199982, 1557622640.044420, 4.000000, 4.000000, 4.000000, 4.000000, 4.000000
43.000000, 0.000000, 4062.563965, 4363.076660, 4215.897461, 4008.205078, 4275.384277, 0.000000, 8154.000000, 8361.000000, 0.000000, 0.000000, 0.000000, 0.000000, 63.000000, 1557622640.052220, 4.000000, 4.000000, 4.000000, 4.000000, 4.000000
44.000000, 0.000000, 4043.076904, 4358.974121, 4216.410156, 3990.769043, 4280.000000, 0.000000, 8150.000000, 8357.000000, 0.000000, 0.000000, 0.000000, 0.000000, 70.699982, 1557622640.059920, 4.000000, 4.000000, 4.000000, 4.000000, 4.000000
45.000000, 0.000000, 4042.563965, 4356.410156, 4215.897461, 3992.307617, 4291.794922, 0.000000, 8157.000000, 8358.000000, 0.000000, 0.000000, 0.000000, 0.000000, 78.599976, 1557622640.067820, 4.000000, 4.000000, 4.000000, 4.000000, 4.000000
46.000000, 0.000000, 4050.769043, 4361.538574, 4214.358887, 4004.102539, 4275.384277, 0.000000, 8158.000000, 8355.000000, 0.000000, 0.000000, 0.000000, 0.000000, 86.500000, 1557622640.075720, 4.000000, 4.000000, 4.000000, 4.000000, 4.000000
47.000000, 0.000000, 4044.102539, 4359.487305, 4204.102539, 4004.102539, 4274.871582, 0.000000, 8156.000000, 8350.000000, 0.000000, 0.000000, 0.000000, 0.000000, 94.500000, 1557622640.083720, 4.000000, 4.000000, 4.000000, 4.000000, 4.000000
48.000000, 0.000000, 4057.948730, 4356.922852, 4220.000000, 4011.794678, 4300.512695, 0.000000, 8147.000000, 8348.000000, 0.000000, 0.000000, 0.000000, 0.000000, 102.500000, 1557622640.091720, 4.000000, 4.000000, 4.000000, 4.000000, 4.000000
49.000000, 0.000000, 4069.230713, 4346.153809, 4225.641113, 4019.487061, 4297.948730, 0.000000, 8155.000000, 8345.000000, 0.000000, 0.000000, 0.000000, 0.000000, 110.199982, 1557622640.099420, 4.000000, 4.000000, 4.000000, 4.000000, 4.000000
50.000000, 0.000000, 4042.563965, 4327.692383, 4202.563965, 4009.230713, 4281.025391, 0.000000, 8159.000000, 8336.000000, 0.000000, 0.000000, 0.000000, 0.000000, 118.000000, 1557622640.107220, 4.000000, 4.000000, 4.000000, 4.000000, 4.000000
51.000000, 0.000000, 4021.025635, 4329.743652, 4207.692383, 4001.025635, 4276.922852, 0.000000, 8152.000000, 8342.000000, 0.000000, 0.000000, 0.000000, 0.000000, 125.799988, 1557622640.115020, 4.000000, 4.000000, 4.000000, 4.000000, 4.000000
52.000000, 0.000000, 4025.640869, 4343.076660, 4208.717773, 4005.640869, 4270.256348, 0.000000, 8154.000000, 8356.000000, 0.000000, 0.000000, 0.000000, 0.000000, 133.599976, 1557622640.122820, 4.000000, 4.000000, 4.000000, 4.000000, 4.000000
53.000000, 0.000000, 4034.871582, 4336.410156, 4208.717773, 4010.769043, 4259.487305, 0.000000, 8146.000000, 8356.000000, 0.000000, 0.000000, 0.000000, 0.000000, 141.399994, 1557622640.130620, 4.000000, 4.000000, 4.000000, 4.000000, 4.000000
54.000000, 0.000000, 4031.794678, 4328.205078, 4220.512695, 4007.179443, 4257.436035, 0.000000, 8150.000000, 8345.000000, 0.000000, 0.000000, 0.000000, 0.000000, 149.399994, 1557622640.138620, 4.000000, 4.000000, 4.000000, 4.000000, 4.000000
55.000000, 0.000000, 4010.256348, 4340.512695, 4218.974121, 4005.128174, 4260.512695, 0.000000, 8146.000000, 8355.000000, 0.000000, 0.000000, 0.000000, 0.000000, 157.399994, 1557622640.146620, 4.000000, 4.000000, 4.000000, 4.000000, 4.000000
56.000000, 0.000000, 4003.076904, 4342.563965, 4226.666504, 4018.461426, 4263.589844, 0.000000, 8149.000000, 8355.000000, 0.000000, 0.000000, 0.000000, 0.000000, 165.399994, 1557622640.154620, 4.000000, 4.000000, 4.000000, 4.000000, 4.000000
57.000000, 0.000000, 4030.256348, 4333.333008, 4223.076660, 4028.205078, 4276.922852, 0.000000, 8151.000000, 8343.000000, 0.000000, 0.000000, 0.000000, 0.000000, 173.299988, 1557622640.162520, 4.000000, 4.000000, 4.000000, 4.000000, 4.000000
58.000000, 0.000000, 4046.666504, 4344.102539, 4212.820313, 4022.563965, 4293.846191, 0.000000, 8145.000000, 8346.000000, 0.000000, 0.000000, 0.000000, 0.000000, 181.099976, 1557622640.170320, 4.000000, 4.000000, 4.000000, 4.000000, 4.000000
59.000000, 0.000000, 4030.256348, 4350.769043, 4214.358887, 4023.589600, 4297.436035, 0.000000, 8146.000000, 8345.000000, 0.000000, 0.000000, 0.000000, 0.000000, 188.899994, 1557622640.178120, 4.000000, 4.000000, 4.000000, 4.000000, 4.000000
60.000000, 0.000000, 4008.205078, 4328.717773, 4204.102539, 4021.025635, 4279.487305, 0.000000, 8152.000000, 8348.000000, 0.000000, 0.000000, 0.000000, 0.000000, 196.700012, 1557622640.185920, 4.000000, 4.000000, 4.000000, 4.000000, 4.000000
61.000000, 0.000000, 4001.025635, 4319.487305, 4202.051270, 4000.512695, 4264.102539, 0.000000, 8146.000000, 8349.000000, 0.000000, 0.000000, 0.000000, 0.000000, 204.599976, 1557622640.193820, 4.000000, 4.000000, 4.000000, 4.000000, 4.000000
62.000000, 0.000000, 4006.666504, 4334.871582, 4198.974121, 3996.410156, 4273.846191, 0.000000, 8148.000000, 8356.000000, 0.000000, 0.000000, 0.000000, 0.000000, 212.599976, 1557622640.201820, 4.000000, 4.000000, 4.000000, 4.000000, 4.000000
63.000000, 0.000000, 4009.743408, 4327.692383, 4203.589844, 4011.281982, 4282.051270, 0.000000, 8152.000000, 8347.000000, 0.000000, 0.000000, 0.000000, 0.000000, 220.599976, 1557622640.209820, 4.000000, 4.000000, 4.000000, 4.000000, 4.000000
64.000000, 0.000000, 4011.281982, 4315.897461, 4221.025391, 4013.845947, 4275.384277, 500.000000, 8147.000000, 8345.000000, 0.000000, 0.000000, 0.000000, 0.000000, 228.599976, 1557622640.217820, 4.000000, 4.000000, 4.000000, 4.000000, 4.000000
65.000000, 0.000000, 4021.025635, 4330.769043, 4207.179199, 4001.538330, 4263.076660, 500.000000, 8150.000000, 8350.000000, 0.000000, 0.000000, 0.000000, 0.000000, 236.500000, 1557622640.225720, 4.000000, 4.000000, 4.000000, 4.000000, 4.000000
66.000000, 0.000000, 4031.281982, 4338.974121, 4202.051270, 3986.666504, 4249.230469, 16164.000000, 8148.000000, 8346.000000, 0.000000, 0.000000, 0.000000, 0.000000, 244.299988, 1557622640.233520, 4.000000, 4.000000, 4.000000, 4.000000, 4.000000
67.000000, 0.000000, 4030.769043, 4337.436035, 4210.256348, 3978.974365, 4248.205078, 500.000000, 8146.000000, 8333.000000, 0.000000, 0.000000, 0.000000, 0.000000, 252.099976, 1557622640.241320, 4.000000, 4.000000, 4.000000, 4.000000, 4.000000
68.000000, 0.000000, 4013.333252, 4336.922852, 4216.410156, 3989.743408, 4258.461426, 16152.000000, 8148.000000, 8342.000000, 0.000000, 0.000000, 0.000000, 0.000000, 259.899963, 1557622640.249120, 4.000000, 4.000000, 4.000000, 4.000000, 4.000000
69.000000, 0.000000, 4001.025635, 4330.256348, 4223.076660, 4002.051270, 4269.230469, 500.000000, 8146.000000, 8347.000000, 0.000000, 0.000000, 0.000000, 0.000000, 267.700012, 1557622640.256920, 4.000000, 4.000000, 4.000000, 4.000000, 4.000000
70.000000, 0.000000, 4017.435791, 4322.051270, 4205.641113, 3995.384521, 4283.589844, 16185.000000, 8154.000000, 8337.000000, 0.000000, 0.000000, 0.000000, 0.000000, 275.599976, 1557622640.264820, 4.000000, 4.000000, 4.000000, 4.000000, 4.000000
71.000000, 0.000000, 4035.897217, 4323.076660, 4209.743652, 3997.948730, 4293.333008, 500.000000, 8145.000000, 8336.000000, 0.000000, 0.000000, 0.000000, 0.000000, 283.599976, 1557622640.272820, 4.000000, 4.000000, 4.000000, 4.000000, 4.000000
72.000000, 0.000000, 4032.307617, 4328.717773, 4213.846191, 4012.307617, 4284.615234, 500.000000, 8146.000000, 8348.000000, 0.000000, 0.000000, 0.000000, 0.000000, 291.599976, 1557622640.280820, 4.000000, 4.000000, 4.000000, 4.000000, 4.000000
73.000000, 0.000000, 4023.076904, 4328.717773, 4197.436035, 4015.384521, 4277.948730, 283.000000, 8151.000000, 8344.000000, 0.000000, 0.000000, 0.000000, 0.000000, 299.599976, 1557622640.288820, 4.000000, 4.000000, 4.000000, 4.000000, 4.000000
74.000000, 0.000000, 4024.615234, 4323.589844, 4203.589844, 4009.230713, 4275.384277, 500.000000, 8152.000000, 8344.000000, 0.000000, 0.000000, 0.000000, 0.000000, 307.299988, 1557622640.296520, 4.000000, 4.000000, 4.000000, 4.000000, 4.000000
75.000000, 0.000000, 4031.794678, 4329.743652, 4208.717773, 4003.589600, 4266.153809, 16213.000000, 8145.000000, 8343.000000, 0.000000, 0.000000, 0.000000, 0.000000, 315.099976, 1557622640.304320, 4.000000, 4.000000, 4.000000, 4.000000, 4.000000
76.000000, 0.000000, 4037.435791, 4346.666504, 4212.820313, 4005.128174, 4268.205078, 500.000000, 8149.000000, 8337.000000, 0.000000, 0.000000, 0.000000, 0.000000, 322.899963, 1557622640.312120, 4.000000, 4.000000, 4.000000, 4.000000, 4.000000
77.000000, 0.000000, 4027.692139, 4337.948730, 4210.256348, 4005.128174, 4274.358887, 500.000000, 8140.000000, 8337.000000, 0.000000, 0.000000, 0.000000, 0.000000, 330.700012, 1557622640.319920, 4.000000, 4.000000, 4.000000, 4.000000, 4.000000
78.000000, 0.000000, 4013.845947, 4321.538574, 4207.179199, 4002.051270, 4277.436035, 450.000000, 8143.000000, 8347.000000, 0.000000, 0.000000, 0.000000, 0.000000, 338.599976, 1557622640.327820, 4.000000, 4.000000, 4.000000, 4.000000, 4.000000
79.000000, 0.000000, 4014.871582, 4327.179199, 4227.692383, 3993.333252, 4271.794922, 16213.000000, 8140.000000, 8346.000000, 0.000000, 0.000000, 0.000000, 0.000000, 346.599976, 1557622640.335820, 4.000000, 4.000000, 4.000000, 4.000000, 4.000000
80.000000, 0.000000, 4015.384521, 4333.333008, 4221.538574, 3974.871582, 4249.743652, 450.000000, 8147.000000, 8344.000000, 0.000000, 0.000000, 0.000000, 0.000000, 354.599976, 1557622640.343820, 4.000000, 4.000000, 4.000000, 4.000000, 4.000000
81.000000, 0.000000, 4010.769043, 4327.692383, 4206.153809, 3976.410156, 4246.666504, 450.000000, 8144.000000, 8345.000000, 0.000000, 0.000000, 0.000000, 0.000000, 362.599976, 1557622640.351820, 4.000000, 4.000000, 4.000000, 4.000000, 4.000000
82.000000, 0.000000, 4014.358887, 4325.641113, 4207.179199, 3995.897217, 4267.692383, 450.000000, 8142.000000, 8355.000000, 0.000000, 0.000000, 0.000000, 0.000000, 370.299988, 1557622640.359520, 4.000000, 4.000000, 4.000000, 4.000000, 4.000000
83.000000, 0.000000, 4013.333252, 4320.000000, 4204.102539, 3994.871582, 4268.717773, 16213.000000, 8145.000000, 8360.000000, 0.000000, 0.000000, 0.000000, 0.000000, 378.099976, 1557622640.367320, 4.000000, 4.000000, 4.000000, 4.000000, 4.000000
84.000000, 0.000000, 4003.076904, 4310.256348, 4208.717773, 3988.717773, 4250.256348, 450.000000, 8147.000000, 8356.000000, 0.000000, 0.000000, 0.000000, 0.000000, 385.899963, 1557622640.375120, 4.000000, 4.000000, 4.000000, 4.000000, 4.000000
85.000000, 0.000000, 4003.589600, 4316.410156, 4201.538574, 3998.974365, 4241.025391, 450.000000, 8147.000000, 8364.000000, 0.000000, 0.000000, 0.000000, 0.000000, 393.700012, 1557622640.382920, 4.000000, 4.000000, 4.000000, 4.000000, 4.000000
86.000000, 0.000000, 4010.769043, 4327.179199, 4202.563965, 4005.128174, 4245.127930, 450.000000, 8153.000000, 8351.000000, 0.000000, 0.000000, 0.000000, 0.000000, 401.599976, 1557622640.390820, 4.000000, 4.000000, 4.000000, 4.000000, 4.000000
87.000000, 0.000000, 4016.410156, 4337.436035, 4211.794922, 4002.051270, 4249.743652, 16213.000000, 8153.000000, 8354.000000, 0.000000, 0.000000, 0.000000, 0.000000, 409.599976, 1557622640.398820, 4.000000, 4.000000, 4.000000, 4.000000, 4.000000
88.000000, 0.000000, 4020.512695, 4351.281738, 4199.487305, 3996.410156, 4244.102539, 450.000000, 8153.000000, 8348.000000, 0.000000, 0.000000, 0.000000, 0.000000, 417.500000, 1557622640.406720, 4.000000, 4.000000, 4.000000, 4.000000, 4.000000
89.000000, 0.000000, 4012.307617, 4353.846191, 4204.615234, 3992.820313, 4245.641113, 450.000000, 8159.000000, 8343.000000, 0.000000, 0.000000, 0.000000, 0.000000, 425.500000, 1557622640.414720, 4.000000, 4.000000, 4.000000, 4.000000, 4.000000
90.000000, 0.000000, 4009.743408, 4348.205078, 4216.922852, 3995.384521, 4260.000000, 450.000000, 8160.000000, 8344.000000, 0.000000, 0.000000, 0.000000, 0.000000, 433.399963, 1557622640.422620, 4.000000, 4.000000, 4.000000, 4.000000, 4.000000
91.000000, 0.000000, 4020.000000, 4338.974121, 4224.615234, 3998.974365, 4263.076660, 16213.000000, 8155.000000, 8347.000000, 0.000000, 0.000000, 0.000000, 0.000000, 441.200012, 1557622640.430420, 4.000000, 4.000000, 4.000000, 4.000000, 4.000000
92.000000, 0.000000, 4026.153809, 4337.948730, 4223.589844, 3995.384521, 4262.563965, 450.000000, 8159.000000, 8345.000000, 0.000000, 0.000000, 0.000000, 0.000000, 449.000000, 1557622640.438220, 4.000000, 4.000000, 4.000000, 4.000000, 4.000000
93.000000, 0.000000, 4020.512695, 4340.000000, 4204.615234, 3985.128174, 4263.076660, 450.000000, 8158.000000, 8335.000000, 0.000000, 0.000000, 0.000000, 0.000000, 456.799988, 1557622640.446020, 4.000000, 4.000000, 4.000000, 4.000000, 4.000000
94.000000, 0.000000, 4005.640869, 4332.820313, 4215.384277, 3977.948730, 4251.281738, 450.000000, 8160.000000, 8335.000000, 0.000000, 0.000000, 0.000000, 0.000000, 464.700012, 1557622640.453920, 4.000000, 4.000000, 4.000000, 4.000000, 4.000000
95.000000, 0.000000, 4003.589600, 4336.410156, 4221.538574, 3978.974365, 4242.563965, 16213.000000, 8152.000000, 8343.000000, 0.000000, 0.000000, 0.000000, 0.000000, 472.599976, 1557622640.461820, 4.000000, 4.000000, 4.000000, 4.000000, 4.000000
96.000000, 0.000000, 4016.923096, 4355.384277, 4211.281738, 3984.615234, 4254.358887, 450.000000, 8151.000000, 8336.000000, 0.000000, 0.000000, 0.000000, 0.000000, 480.599976, 1557622640.469820, 4.000000, 4.000000, 4.000000, 4.000000, 4.000000
97.000000, 0.000000, 4019.487061, 4351.794922, 4207.692383, 3988.205078, 4254.871582, 450.000000, 8152.000000, 8324.000000, 0.000000, 0.000000, 0.000000, 0.000000, 488.599976, 1557622640.477820, 4.000000, 4.000000, 4.000000, 4.000000, 4.000000
98.000000, 0.000000, 4013.845947, 4335.897461, 4191.281738, 3982.563965, 4233.846191, 450.000000, 8157.000000, 8316.000000, 0.000000, 0.000000, 0.000000, 0.000000, 496.599976, 1557622640.485820, 4.000000, 4.000000, 4.000000, 4.000000, 4.000000
99.000000, 0.000000, 4003.589600, 4340.000000, 4200.512695, 3977.948730, 4226.666504, 16213.000000, 8145.000000, 8318.000000, 0.000000, 0.000000, 0.000000, 0.000000, 504.500000, 1557622640.493720, 4.000000, 4.000000, 4.000000, 4.000000, 4.000000
100.000000, 0.000000, 3968.717773, 4333.846191, 4211.281738, 3981.025635, 4219.487305, 450.000000, 8145.000000, 8306.000000, 0.000000, 0.000000, 0.000000, 0.000000, 512.299988, 1557622640.501520, 4.000000, 4.000000, 4.000000, 4.000000, 4.000000
101.000000, 0.000000, 3943.589600, 4315.897461, 4202.563965, 3973.845947, 4187.692383, 450.000000, 8140.000000, 8309.000000, 0.000000, 0.000000, 0.000000, 0.000000, 520.099976, 1557622640.509320, 4.000000, 4.000000, 4.000000, 4.000000, 4.000000
102.000000, 0.000000, 3966.666504, 4332.820313, 4208.205078, 3966.153809, 4173.846191, 450.000000, 8146.000000, 8306.000000, 0.000000, 0.000000, 0.000000, 0.000000, 527.899963, 1557622640.517120, 4.000000, 4.000000, 4.000000, 4.000000, 4.000000
103.000000, 0.000000, 3989.230713, 4353.333008, 4212.307617, 3984.102539, 4202.051270, 16213.000000, 8143.000000, 8309.000000, 0.000000, 0.000000, 0.000000, 0.000000, 535.599976, 1557622640.524820, 4.000000, 4.000000, 4.000000, 4.000000, 4.000000
104.000000, 0.000000, 3995.384521, 4346.666504, 4218.461426, 3998.974365, 4228.717773, 450.000000, 8135.000000, 8316.000000, 0.000000, 0.000000, 0.000000, 0.000000, 543.599976, 1557622640.532820, 4.000000, 4.000000, 4.000000, 4.000000, 4.000000
105.000000, 0.000000, 4015.897217, 4355.384277, 4213.333008, 3994.871582, 4234.358887, 450.000000, 8140.000000, 8317.000000, 0.000000, 0.000000, 0.000000, 0.000000, 551.599976, 1557622640.540820, 4.000000, 4.000000, 4.000000, 4.000000, 4.000000
106.000000, 0.000000, 4023.589600, 4373.333008, 4210.769043, 3993.845947, 4233.333008, 450.000000, 8152.000000, 8307.000000, 0.000000, 0.000000, 0.000000, 0.000000, 559.599976, 1557622640.548820, 4.000000, 4.000000, 4.000000, 4.000000, 4.000000
107.000000, 0.000000, 4010.769043, 4366.666504, 4223.076660, 3991.794678, 4231.794922, 16213.000000, 8144.000000, 8304.000000, 0.000000, 0.000000, 0.000000, 0.000000, 567.500000, 1557622640.556720, 4.000000, 4.000000, 4.000000, 4.000000, 4.000000
108.000000, 0.000000, 4009.743408, 4363.589844, 4210.256348, 3995.897217, 4240.000000, 450.000000, 8144.000000, 8319.000000, 0.000000, 0.000000, 0.000000, 0.000000, 575.299988, 1557622640.564520, 4.000000, 4.000000, 4.000000, 4.000000, 4.000000
109.000000, 0.000000, 4013.845947, 4360.512695, 4211.281738, 4018.974365, 4246.153809, 450.000000, 8146.000000, 8316.000000, 0.000000, 0.000000, 0.000000, 0.000000, 583.099976, 1557622640.572320, 4.000000, 4.000000, 4.000000, 4.000000, 4.000000
110.000000, 0.000000, 4004.615234, 4341.538574, 4218.461426, 4019.487061, 4240.000000, 450.000000, 8144.000000, 8307.000000, 0.000000, 0.000000, 0.000000, 0.000000, 590.899963, 1557622640.580120, 4.000000, 4.000000, 4.000000, 4.000000, 4.000000
111.000000, 0.000000, 4002.051270, 4348.717773, 4209.230469, 3998.974365, 4231.281738, 16213.000000, 8141.000000, 8310.000000, 0.000000, 0.000000, 0.000000, 0.000000, 598.599976, 1557622640.587820, 4.000000, 4.000000, 4.000000, 4.000000, 4.000000
112.000000, 0.000000, 4015.384521, 4367.179199, 4220.000000, 4005.640869, 4220.000000, 450.000000, 8145.000000, 8317.000000, 0.000000, 0.000000, 0.000000, 0.000000, 606.599976, 1557622640.595820, 4.000000, 4.000000, 4.000000, 4.000000, 4.000000
113.000000, 0.000000, 4016.923096, 4359.487305, 4211.281738, 4004.102539, 4202.051270, 450.000000, 8147.000000, 8324.000000, 0.000000, 0.000000, 0.000000, 0.000000, 614.599976, 1557622640.603820, 4.000000, 4.000000, 4.000000, 4.000000, 4.000000
114.000000, 0.000000, 4000.512695, 4361.538574, 4198.461426, 3977.435791, 4197.948730, 450.000000, 8143.000000, 8323.000000, 0.000000, 0.000000, 0.000000, 0.000000, 622.500000, 1557622640.611720, 4.000000, 4.000000, 4.000000, 4.000000, 4.000000
115.000000, 0.000000, 3989.743408, 4376.410156, 4213.846191, 3972.307617, 4212.820313, 16213.000000, 8144.000000, 8324.000000, 0.000000, 0.000000, 0.000000, 0.000000, 630.500000, 1557622640.619720, 4.000000, 4.000000, 4.000000, 4.000000, 4.000000
116.000000, 0.000000, 3988.205078, 4362.051270, 4220.000000, 3980.000000, 4215.897461, 450.000000, 8147.000000, 8329.000000, 0.000000, 0.000000, 0.000000, 0.000000, 638.399963, 1557622640.627620, 4.000000, 4.000000, 4.000000, 4.000000, 4.000000
117.000000, 0.000000, 3987.692139, 4342.563965, 4218.461426, 3979.487061, 4200.000000, 450.000000, 8141.000000, 8341.000000, 0.000000, 0.000000, 0.000000, 0.000000, 646.200012, 1557622640.635420, 4.000000, 4.000000, 4.000000, 4.000000, 4.000000
118.000000, 0.000000, 3997.948730, 4345.641113, 4210.256348, 3992.307617, 4193.333008, 450.000000, 8144.000000, 8341.000000, 0.000000, 0.000000, 0.000000, 0.000000, 654.000000, 1557622640.643220, 4.000000, 4.000000, 4.000000, 4.000000, 4.000000
119.000000, 0.000000, 4005.640869, 4351.794922, 4213.333008, 4010.769043, 4204.102539, 16213.000000, 8149.000000, 8337.000000, 0.000000, 0.000000, 0.000000, 0.000000, 661.799988, 1557622640.651020, 4.000000, 4.000000, 4.000000, 4.000000, 4.000000
120.000000, 0.000000, 3993.845947, 4350.256348, 4217.948730, 4004.615234, 4203.076660, 450.000000, 8155.000000, 8339.000000, 0.000000, 0.000000, 0.000000, 0.000000, 669.500000, 1557622640.658720, 4.000000, 4.000000, 4.000000, 4.000000, 4.000000
121.000000, 0.000000, 3989.743408, 4343.076660, 4208.205078, 3991.794678, 4186.153809, 450.000000, 8155.000000, 8352.000000, 0.000000, 0.000000, 0.000000, 0.000000, 677.500000, 1557622640.666720, 4.000000, 4.000000, 4.000000, 4.000000, 4.000000
122.000000, 0.000000, 4000.000000, 4338.461426, 4212.820313, 3991.794678, 4178.461426, 450.000000, 8146.000000, 8345.000000, 0.000000, 0.000000, 0.000000, 0.000000, 685.499988, 1557622640.674720, 4.000000, 4.000000, 4.000000, 4.000000, 4.000000
123.000000, 0.000000, 3994.358887, 4343.589844, 4208.205078, 3987.692139, 4183.076660, 16213.000000, 8151.000000, 8336.000000, 0.000000, 0.000000, 0.000000, 0.000000, 693.499988, 1557622640.682720, 4.000000, 4.000000, 4.000000, 4.000000, 4.000000
124.000000, 0.000000, 3994.871582, 4349.743652, 4211.281738, 3987.692139, 4187.692383, 450.000000, 8149.000000, 8336.000000, 0.000000, 0.000000, 0.000000, 0.000000, 701.399988, 1557622640.690620, 4.000000, 4.000000, 4.000000, 4.000000, 4.000000
125.000000, 0.000000, 4016.410156, 4356.922852, 4224.615234, 3996.923096, 4194.358887, 450.000000, 8146.000000, 8343.000000, 0.000000, 0.000000, 0.000000, 0.000000, 709.399988, 1557622640.698620, 4.000000, 4.000000, 4.000000, 4.000000, 4.000000
126.000000, 0.000000, 4012.820313, 4362.051270, 4214.358887, 3987.692139, 4201.025391, 450.000000, 8148.000000, 8335.000000, 0.000000, 0.000000, 0.000000, 0.000000, 717.199989, 1557622640.706420, 4.000000, 4.000000, 4.000000, 4.000000, 4.000000
127.000000, 0.000000, 3990.769043, 4362.051270, 4216.410156, 3964.102539, 4198.461426, 16213.000000, 8141.000000, 8335.000000, 0.000000, 0.000000, 0.000000, 0.000000, 724.999989, 1557622640.714220, 4.000000, 4.000000, 4.000000, 4.000000, 4.000000
128.000000, 0.000000, 3985.640869, 4363.589844, 4213.333008, 3957.435791, 4185.641113, 500.000000, 8144.000000, 8331.000000, 0.000000, 0.000000, 0.000000, 0.000000, 732.699989, 1557622640.721920, 4.000000, 4.000000, 4.000000, 4.000000, 4.000000
0.000000, 0.000000, 3996.923096, 4354.358887, 4203.076660, 3966.153809, 4173.846191, 500.000000, 8145.000000, 8333.000000, 0.000000, 0.000000, 0.000000, 0.000000, 740.699989, 1557622640.729920, 4.000000, 4.000000, 4.000000, 4.000000, 4.000000
1.000000, 0.000000, 4013.845947, 4328.717773, 4207.692383, 3978.974365, 4176.922852, 500.000000, 8144.000000, 8336.000000, 0.000000, 0.000000, 0.000000, 0.000000, 748.599991, 1557622640.737820, 4.000000, 4.000000, 4.000000, 4.000000, 4.000000
2.000000, 0.000000, 4027.692139, 4319.487305, 4206.666504, 3994.358887, 4196.410156, 16195.000000, 8147.000000, 8340.000000, 0.000000, 0.000000, 0.000000, 0.000000, 756.599991, 1557622640.745820, 4.000000, 4.000000, 4.000000, 4.000000, 4.000000
3.000000, 0.000000, 4049.743408, 4343.076660, 4212.307617, 3997.435791, 4204.615234, 500.000000, 8149.000000, 8333.000000, 0.000000, 0.000000, 0.000000, 0.000000, 764.499985, 1557622640.753720, 4.000000, 4.000000, 4.000000, 4.000000, 4.000000
4.000000, 0.000000, 4065.640869, 4360.512695, 4200.512695, 3985.640869, 4195.384277, 16167.000000, 8151.000000, 8336.000000, 0.000000, 0.000000, 0.000000, 0.000000, 772.299988, 1557622640.761520, 4.000000, 4.000000, 4.000000, 4.000000, 4.000000
5.000000, 0.000000, 4047.692139, 4351.281738, 4199.487305, 3985.640869, 4200.000000, 500.000000, 8145.000000, 8342.000000, 0.000000, 0.000000, 0.000000, 0.000000, 780.099991, 1557622640.769320, 4.000000, 4.000000, 4.000000, 4.000000, 4.000000
6.000000, 0.000000, 4019.487061, 4341.025391, 4227.179199, 3991.281982, 4203.589844, 16179.000000, 8148.000000, 8336.000000, 0.000000, 0.000000, 0.000000, 0.000000, 787.899986, 1557622640.777120, 4.000000, 4.000000, 4.000000, 4.000000, 4.000000
7.000000, 0.000000, 4016.410156, 4342.051270, 4215.384277, 3972.820313, 4185.641113, 500.000000, 8155.000000, 8320.000000, 0.000000, 0.000000, 0.000000, 0.000000, 795.599991, 1557622640.784820, 4.000000, 4.000000, 4.000000, 4.000000, 4.000000
8.000000, 0.000000, 4023.589600, 4345.641113, 4203.589844, 3958.974365, 4174.358887, 500.000000, 8156.000000, 8317.000000, 0.000000, 0.000000, 0.000000, 0.000000, 803.599991, 1557622640.792820, 4.000000, 4.000000, 4.000000, 4.000000, 4.000000
9.000000, 0.000000, 4015.384521, 4348.205078, 4212.820313, 3971.281982, 4183.076660, 289.000000, 8151.000000, 8327.000000, 0.000000, 0.000000, 0.000000, 0.000000, 811.599991, 1557622640.800820, 4.000000, 4.000000, 4.000000, 4.000000, 4.000000
10.000000, 0.000000, 4007.692139, 4356.922852, 4227.692383, 3986.666504, 4193.333008, 500.000000, 8150.000000, 8321.000000, 0.000000, 0.000000, 0.000000, 0.000000, 819.599991, 1557622640.808820, 4.000000, 4.000000, 4.000000, 4.000000, 4.000000
11.000000, 0.000000, 4016.923096, 4366.666504, 4239.487305, 3993.333252, 4200.000000, 16184.000000, 8148.000000, 8309.000000, 0.000000, 0.000000, 0.000000, 0.000000, 827.599991, 1557622640.816820, 4.000000, 4.000000, 4.000000, 4.000000, 4.000000
12.000000, 0.000000, 4027.692139, 4373.333008, 4224.102539, 4000.512695, 4214.871582, 500.000000, 8149.000000, 8300.000000, 0.000000, 0.000000, 0.000000, 0.000000, 835.499985, 1557622640.824720, 4.000000, 4.000000, 4.000000, 4.000000, 4.000000
13.000000, 0.000000, 4026.153809, 4371.794922, 4227.692383, 4007.179443, 4230.769043, 500.000000, 8154.000000, 8297.000000, 0.000000, 0.000000, 0.000000, 0.000000, 843.299988, 1557622640.832520, 4.000000, 4.000000, 4.000000, 4.000000, 4.000000
14.000000, 0.000000, 4032.307617, 4359.487305, 4226.153809, 4000.000000, 4225.641113, 450.000000, 8158.000000, 8300.000000, 0.000000, 0.000000, 0.000000, 0.000000, 851.099991, 1557622640.840320, 4.000000, 4.000000, 4.000000, 4.000000, 4.000000
15.000000, 0.000000, 4045.128174, 4352.820313, 4198.974121, 3989.743408, 4205.127930, 16184.000000, 8162.000000, 8303.000000, 0.000000, 0.000000, 0.000000, 0.000000, 858.899994, 1557622640.848120, 4.000000, 4.000000, 4.000000, 4.000000, 4.000000
16.000000, 0.000000, 4037.948730, 4360.512695, 4205.127930, 3994.358887, 4207.179199, 0.000000, 8160.000000, 8306.000000, 0.000000, 0.000000, 0.000000, 0.000000, 866.699982, 1557622640.855920, 4.000000, 4.000000, 4.000000, 4.000000, 4.000000
17.000000, 0.000000, 4024.102539, 4371.281738, 4215.897461, 3998.461426, 4232.820313, 0.000000, 8159.000000, 8298.000000, 0.000000, 0.000000, 0.000000, 0.000000, 874.699982, 1557622640.863920, 4.000000, 4.000000, 4.000000, 4.000000, 4.000000
18.000000, 0.000000, 4031.794678, 4373.333008, 4222.563965, 4004.102539, 4237.436035, 0.000000, 8159.000000, 8304.000000, 0.000000, 0.000000, 0.000000, 0.000000, 882.699982, 1557622640.871920, 4.000000, 4.000000, 4.000000, 4.000000, 4.000000
19.000000, 0.000000, 4046.666504, 4371.281738, 4227.179199, 4009.743408, 4218.461426, 0.000000, 8157.000000, 8294.000000, 0.000000, 0.000000, 0.000000, 0.000000, 890.499985, 1557622640.879720, 4.000000, 4.000000, 4.000000, 4.000000, 4.000000
20.000000, 0.000000, 4047.692139, 4367.692383, 4215.897461, 4006.666504, 4215.897461, 0.000000, 8167.000000, 8288.000000, 0.000000, 0.000000, 0.000000, 0.000000, 898.399994, 1557622640.887620, 4.000000, 4.000000, 4.000000, 4.000000, 4.000000
21.000000, 0.000000, 4055.897217, 4370.769043, 4217.948730, 4013.845947, 4227.692383, 0.000000, 8171.000000, 8289.000000, 0.000000, 0.000000, 0.000000, 0.000000, 906.199982, 1557622640.895420, 4.000000, 4.000000, 4.000000, 4.000000, 4.000000
22.000000, 0.000000, 4068.205078, 4375.897461, 4215.384277, 4029.743408, 4227.692383, 0.000000, 8161.000000, 8295.000000, 0.000000, 0.000000, 0.000000, 0.000000, 913.999985, 1557622640.903220, 4.000000, 4.000000, 4.000000, 4.000000, 4.000000
23.000000, 0.000000, 4047.692139, 4366.666504, 4213.846191, 4018.461426, 4218.974121, 0.000000, 8167.000000, 8296.000000, 0.000000, 0.000000, 0.000000, 0.000000, 921.799988, 1557622640.911020, 4.000000, 4.000000, 4.000000, 4.000000, 4.000000
24.000000, 0.000000, 4014.871582, 4358.461426, 4209.230469, 3984.102539, 4202.563965, 0.000000, 8168.000000, 8286.000000, 0.000000, 0.000000, 0.000000, 0.000000, 929.499985, 1557622640.918720, 4.000000, 4.000000, 4.000000, 4.000000, 4.000000
25.000000, 0.000000, 4022.051270, 4364.615234, 4200.512695, 3982.563965, 4184.615234, 0.000000, 8163.000000, 8291.000000, 0.000000, 0.000000, 0.000000, 0.000000, 937.500000, 1557622640.926720, 4.000000, 4.000000, 4.000000, 4.000000, 4.000000
26.000000, 0.000000, 4046.666504, 4384.102539, 4219.487305, 4012.820313, 4193.846191, 0.000000, 8161.000000, 8292.000000, 0.000000, 0.000000, 0.000000, 0.000000, 945.500000, 1557622640.934720, 4.000000, 4.000000, 4.000000, 4.000000, 4.000000
27.000000, 0.000000, 4052.307617, 4399.487305, 4216.410156, 4022.051270, 4213.846191, 0.000000, 8152.000000, 8290.000000, 0.000000, 0.000000, 0.000000, 0.000000, 953.500000, 1557622640.942720, 4.000000, 4.000000, 4.000000, 4.000000, 4.000000
28.000000, 0.000000, 4047.179443, 4388.205078, 4202.051270, 4007.692139, 4204.102539, 0.000000, 8152.000000, 8292.000000, 0.000000, 0.000000, 0.000000, 0.000000, 961.399994, 1557622640.950620, 4.000000, 4.000000, 4.000000, 4.000000, 4.000000
29.000000, 0.000000, 4032.307617, 4360.512695, 4213.333008, 4010.769043, 4197.948730, 0.000000, 8151.000000, 8297.000000, 0.000000, 0.000000, 0.000000, 0.000000, 969.399994, 1557622640.958620, 4.000000, 4.000000, 4.000000, 4.000000, 4.000000
30.000000, 0.000000, 4028.717773, 4353.846191, 4218.974121, 4025.128174, 4204.615234, 0.000000, 8152.000000, 8300.000000, 0.000000, 0.000000, 0.000000, 0.000000, 977.199982, 1557622640.966420, 4.000000, 4.000000, 4.000000, 4.000000, 4.000000
31.000000, 0.000000, 4044.615234, 4363.076660, 4212.820313, 4016.410156, 4182.051270, 0.000000, 8145.000000, 8297.000000, 0.000000, 0.000000, 0.000000, 0.000000, 985.000000, 1557622640.974220, 4.000000, 4.000000, 4.000000, 4.000000, 4.000000
32.000000, 0.000000, 4034.871582, 4355.897461, 4195.897461, 3995.384521, 4154.358887, 0.000000, 8139.000000, 8308.000000, 0.000000, 0.000000, 0.000000, 0.000000, 992.799988, 1557622640.982020, 4.000000, 4.000000, 4.000000, 4.000000, 4.000000
33.000000, 0.000000, 4011.794678, 4348.717773, 4206.666504, 3995.897217, 4164.102539, 0.000000, 8141.000000, 8302.000000, 0.000000, 0.000000, 0.000000, 1.000000, 0.699982, 1557622640.989920, 4.000000, 4.000000, 4.000000, 4.000000, 4.000000
34.000000, 0.000000, 4018.974365, 4359.487305, 4227.179199, 4004.102539, 4186.153809, 0.000000, 8137.000000, 8297.000000, 0.000000, 0.000000, 0.000000, 1.000000, 8.500000, 1557622640.997720, 4.000000, 4.000000, 4.000000, 4.000000, 4.000000
35.000000, 0.000000, 4031.794678, 4373.846191, 4211.794922, 3997.948730, 4178.461426, 0.000000, 8141.000000, 8311.000000, 0.000000, 0.000000, 0.000000, 1.000000, 16.500000, 1557622641.005720, 4.000000, 4.000000, 4.000000, 4.000000, 4.000000
36.000000, 0.000000, 4024.615234, 4375.384277, 4215.897461, 4003.589600, 4169.230469, 0.000000, 8142.000000, 8310.000000, 0.000000, 0.000000, 0.000000, 1.000000, 24.500000, 1557622641.013720, 4.000000, 4.000000, 4.000000, 4.000000, 4.000000
37.000000, 0.000000, 4008.205078, 4371.794922, 4225.641113, 4013.333252, 4183.589844, 0.000000, 8142.000000, 8298.000000, 0.000000, 0.000000, 0.000000, 1.000000, 32.199982, 1557622641.021420, 4.000000, 4.000000, 4.000000, 4.000000, 4.000000
38.000000, 0.000000, 4007.692139, 4372.307617, 4216.922852, 4001.538330, 4188.717773, 0.000000, 8149.000000, 8299.000000, 0.000000, 0.000000, 0.000000, 1.000000, 40.000000, 1557622641.029220, 4.000000, 4.000000, 4.000000, 4.000000, 4.000000
39.000000, 0.000000, 4035.897217, 4376.922852, 4215.897461, 3998.461426, 4187.179199, 0.000000, 8155.000000, 8300.000000, 0.000000, 0.000000, 0.000000, 1.000000, 47.799988, 1557622641.037020, 4.000000, 4.000000, 4.000000, 4.000000, 4.000000
40.000000, 0.000000, 4070.769043, 4384.102539, 4211.794922, 4018.461426, 4215.384277, 0.000000, 8154.000000, 8298.000000, 0.000000, 0.000000, 0.000000, 1.000000, 55.699982, 1557622641.044920, 4.000000, 4.000000, 4.000000, 4.000000, 4.000000
41.000000, 0.000000, 4080.512695, 4372.307617, 4221.025391, 4021.025635, 4239.487305, 0.000000, 8149.000000, 8294.000000, 0.000000, 0.000000, 0.000000, 1.000000, 63.599976, 1557622641.052820, 4.000000, 4.000000, 4.000000, 4.000000, 4.000000
42.000000, 0.000000, 4103.589844, 4364.615234, 4221.025391, 4004.615234, 4248.205078, 0.000000, 8148.000000, 8313.000000, 0.000000, 0.000000, 0.000000, 1.000000, 71.599976, 1557622641.060820, 4.000000, 4.000000, 4.000000, 4.000000, 4.000000
43.000000, 0.000000, 4171.281738, 4386.153809, 4214.871582, 4007.692139, 4280.512695, 0.000000, 8149.000000, 8310.000000, 0.000000, 0.000000, 0.000000, 1.000000, 79.599976, 1557622641.068820, 4.000000, 4.000000, 4.000000, 4.000000, 4.000000
44.000000, 0.000000, 4223.589844, 4393.846191, 4221.538574, 4013.845947, 4295.384277, 0.000000, 8147.000000, 8312.000000, 0.000000, 0.000000, 0.000000, 1.000000, 87.399994, 1557622641.076620, 4.000000, 4.000000, 4.000000, 4.000000, 4.000000
45.000000, 0.000000, 4220.512695, 4383.589844, 4209.743652, 4002.563965, 4274.358887, 0.000000, 8145.000000, 8326.000000, 0.000000, 0.000000, 0.000000, 1.000000, 95.299988, 1557622641.084520, 4.000000, 4.000000, 4.000000, 4.000000, 4.000000
46.000000, 0.000000, 4192.307617, 4401.025391, 4216.410156, 3991.281982, 4276.410156, 0.000000, 8149.000000, 8329.000000, 0.000000, 0.000000, 0.000000, 1.000000, 103.099976, 1557622641.092320, 4.000000, 4.000000, 4.000000, 4.000000, 4.000000
47.000000, 0.000000, 4173.333008, 4418.974121, 4233.846191, 3990.256348, 4286.153809, 0.000000, 8144.000000, 8319.000000, 0.000000, 0.000000, 0.000000, 1.000000, 110.899994, 1557622641.100120, 4.000000, 4.000000, 4.000000, 4.000000, 4.000000
48.000000, 0.000000, 4161.538574, 4396.410156, 4224.102539, 3987.692139, 4242.563965, 0.000000, 8139.000000, 8319.000000, 0.000000, 0.000000, 0.000000, 1.000000, 118.699982, 1557622641.107920, 4.000000, 4.000000, 4.000000, 4.000000, 4.000000
49.000000, 0.000000, 4142.563965, 4384.102539, 4207.692383, 3975.384521, 4200.000000, 0.000000, 8138.000000, 8333.000000, 0.000000, 0.000000, 0.000000, 1.000000, 126.500000, 1557622641.115720, 4.000000, 4.000000, 4.000000, 4.000000, 4.000000
50.000000, 0.000000, 4114.358887, 4391.281738, 4196.922852, 3974.871582, 4207.692383, 0.000000, 8139.000000, 8324.000000, 0.000000, 0.000000, 0.000000, 1.000000, 134.500000, 1557622641.123720, 4.000000, 4.000000, 4.000000, 4.000000, 4.000000
51.000000, 0.000000, 4094.358887, 4386.153809, 4215.897461, 3990.769043, 4218.461426, 0.000000, 8141.000000, 8326.000000, 0.000000, 0.000000, 0.000000, 1.000000, 142.500000, 1557622641.131720, 4.000000, 4.000000, 4.000000, 4.000000, 4.000000
52.000000, 0.000000, 4096.410156, 4382.563965, 4222.563965, 3990.256348, 4212.307617, 0.000000, 8134.000000, 8332.000000, 0.000000, 0.000000, 0.000000, 1.000000, 150.500000, 1557622641.139720, 4.000000, 4.000000, 4.000000, 4.000000, 4.000000
53.000000, 0.000000, 4102.051270, 4387.692383, 4200.000000, 3976.410156, 4203.076660, 0.000000, 8138.000000, 8327.000000, 0.000000, 0.000000, 0.000000, 1.000000, 158.399994, 1557622641.147620, 4.000000, 4.000000, 4.000000, 4.000000, 4.000000
54.000000, 0.000000, 4109.743652, 4387.179199, 4210.769043, 3987.179443, 4215.897461, 0.000000, 8137.000000, 8324.000000, 0.000000, 0.000000, 0.000000, 1.000000, 166.199982, 1557622641.155420, 4.000000, 4.000000, 4.000000, 4.000000, 4.000000
55.000000, 0.000000, 4132.820313, 4383.589844, 4226.666504, 4004.615234, 4249.230469, 0.000000, 8137.000000, 8326.000000, 0.000000, 0.000000, 0.000000, 1.000000, 174.000000, 1557622641.163220, 4.000000, 4.000000, 4.000000, 4.000000, 4.000000
56.000000, 0.000000, 4158.461426, 4389.743652, 4232.820313, 4004.615234, 4263.076660, 0.000000, 8143.000000, 8318.000000, 0.000000, 0.000000, 0.000000, 1.000000, 181.799988, 1557622641.171020, 4.000000, 4.000000, 4.000000, 4.000000, 4.000000
57.000000, 0.000000, 4177.948730, 4392.820313, 4228.205078, 4007.692139, 4256.410156, 0.000000, 8148.000000, 8313.000000, 0.000000, 0.000000, 0.000000, 1.000000, 189.699982, 1557622641.178920, 4.000000, 4.000000, 4.000000, 4.000000, 4.000000
58.000000, 0.000000, 4178.461426, 4384.102539, 4211.794922, 4013.845947, 4260.000000, 0.000000, 8150.000000, 8321.000000, 0.000000, 0.000000, 0.000000, 1.000000, 197.599976, 1557622641.186820, 4.000000, 4.000000, 4.000000, 4.000000, 4.000000
59.000000, 0.000000, 4160.000000, 4374.871582, 4222.563965, 4010.769043, 4260.000000, 0.000000, 8151.000000, 8316.000000, 0.000000, 0.000000, 0.000000, 1.000000, 205.500000, 1557622641.194720, 4.000000, 4.000000, 4.000000, 4.000000, 4.000000
60.000000, 0.000000, 4138.461426, 4384.102539, 4223.589844, 4002.051270, 4245.641113, 0.000000, 8154.000000, 8311.000000, 0.000000, 0.000000, 0.000000, 1.000000, 213.500000, 1557622641.202720, 4.000000, 4.000000, 4.000000, 4.000000, 4.000000
61.000000, 0.000000, 4116.922852, 4404.615234, 4216.922852, 3998.461426, 4237.948730, 0.000000, 8149.000000, 8312.000000, 0.000000, 0.000000, 0.000000, 1.000000, 221.500000, 1557622641.210720, 4.000000, 4.000000, 4.000000, 4.000000, 4.000000
62.000000, 0.000000, 4086.666504, 4398.974121, 4218.974121, 3996.923096, 4222.051270, 0.000000, 8153.000000, 8324.000000, 0.000000, 0.000000, 0.000000, 1.000000, 229.399963, 1557622641.218620, 4.000000, 4.000000, 4.000000, 4.000000, 4.000000
63.000000, 0.000000, 4061.025635, 4376.410156, 4209.743652, 3991.794678, 4195.384277, 0.000000, 8156.000000, 8309.000000, 0.000000, 0.000000, 0.000000, 1.000000, 237.200012, 1557622641.226420, 4.000000, 4.000000, 4.000000, 4.000000, 4.000000
64.000000, 0.000000, 4049.230713, 4371.794922, 4212.820313, 3988.205078, 4175.384277, 500.000000, 8156.000000, 8320.000000, 0.000000, 0.000000, 0.000000, 1.000000, 245.000000, 1557622641.234220, 4.000000, 4.000000, 4.000000, 4.000000, 4.000000
65.000000, 0.000000, 4025.640869, 4366.666504, 4204.102539, 3984.102539, 4137.948730, 500.000000, 8159.000000, 8330.000000, 0.000000, 0.000000, 0.000000, 1.000000, 252.799988, 1557622641.242020, 4.000000, 4.000000, 4.000000, 4.000000, 4.000000
66.000000, 0.000000, 3998.461426, 4342.051270, 4198.461426, 3985.640869, 4106.666504, 16186.000000, 8154.000000, 8319.000000, 0.000000, 0.000000, 0.000000, 1.000000, 260.599976, 1557622641.249820, 4.000000, 4.000000, 4.000000, 4.000000, 4.000000
67.000000, 0.000000, 3996.410156, 4338.461426, 4216.922852, 3996.410156, 4117.948730, 500.000000, 8155.000000, 8316.000000, 0.000000, 0.000000, 0.000000, 1.000000, 268.500000, 1557622641.257720, 4.000000, 4.000000, 4.000000, 4.000000, 4.000000
68.000000, 0.000000, 4000.512695, 4356.410156, 4215.384277, 4006.666504, 4136.922852, 16192.000000, 8146.000000, 8321.000000, 0.000000, 0.000000, 0.000000, 1.000000, 276.500000, 1557622641.265720, 4.000000, 4.000000, 4.000000, 4.000000, 4.000000
69.000000, 0.000000, 3998.974365, 4354.871582, 4218.461426, 4016.923096, 4147.179199, 500.000000, 8147.000000, 8321.000000, 0.000000, 0.000000, 0.000000, 1.000000, 284.500000, 1557622641.273720, 4.000000, 4.000000, 4.000000, 4.000000, 4.000000
70.000000, 0.000000, 4006.666504, 4358.974121, 4217.436035, 4021.538330, 4156.410156, 16180.000000, 8160.000000, 8308.000000, 0.000000, 0.000000, 0.000000, 1.000000, 292.399963, 1557622641.281620, 4.000000, 4.000000, 4.000000, 4.000000, 4.000000
71.000000, 0.000000, 4015.384521, 4374.358887, 4210.256348, 4015.384521, 4155.897461, 500.000000, 8159.000000, 8312.000000, 0.000000, 0.000000, 0.000000, 1.000000, 300.200012, 1557622641.289420, 4.000000, 4.000000, 4.000000, 4.000000, 4.000000
72.000000, 0.000000, 4021.025635, 4376.410156, 4213.333008, 4006.153809, 4149.743652, 500.000000, 8164.000000, 8308.000000, 0.000000, 0.000000, 0.000000, 1.000000, 308.000000, 1557622641.297220, 4.000000, 4.000000, 4.000000, 4.000000, 4.000000
73.000000, 0.000000, 4035.897217, 4371.281738, 4207.692383, 4000.512695, 4154.871582, 291.000000, 8167.000000, 8293.000000, 0.000000, 0.000000, 0.000000, 1.000000, 315.799988, 1557622641.305020, 4.000000, 4.000000, 4.000000, 4.000000, 4.000000
74.000000, 0.000000, 4070.769043, 4373.846191, 4215.384277, 3995.384521, 4180.000000, 500.000000, 8177.000000, 8290.000000, 0.000000, 0.000000, 0.000000, 1.000000, 323.599976, 1557622641.312820, 4.000000, 4.000000, 4.000000, 4.000000, 4.000000
75.000000, 0.000000, 4115.384277, 4395.897461, 4217.436035, 3986.153809, 4214.871582, 16196.000000, 8169.000000, 8294.000000, 0.000000, 0.000000, 0.000000, 1.000000, 331.500000, 1557622641.320720, 4.000000, 4.000000, 4.000000, 4.000000, 4.000000
76.000000, 0.000000, 4142.051270, 4412.307617, 4212.820313, 3974.358887, 4230.769043, 500.000000, 8171.000000, 8297.000000, 0.000000, 0.000000, 0.000000, 1.000000, 339.500000, 1557622641.328720, 4.000000, 4.000000, 4.000000, 4.000000, 4.000000
77.000000, 0.000000, 4182.051270, 4393.846191, 4215.897461, 3971.794678, 4241.025391, 500.000000, 8170.000000, 8284.000000, 0.000000, 0.000000, 0.000000, 1.000000, 347.500000, 1557622641.336720, 4.000000, 4.000000, 4.000000, 4.000000, 4.000000
78.000000, 0.000000, 4245.641113, 4380.512695, 4207.692383, 3977.948730, 4282.563965, 450.000000, 8167.000000, 8298.000000, 0.000000, 0.000000, 0.000000, 1.000000, 355.500000, 1557622641.344720, 4.000000, 4.000000, 4.000000, 4.000000, 4.000000
79.000000, 0.000000, 4261.538574, 4396.922852, 4229.230469, 3977.435791, 4317.436035, 16196.000000, 8163.000000, 8292.000000, 0.000000, 0.000000, 0.000000, 1.000000, 363.200012, 1557622641.352420, 4.000000, 4.000000, 4.000000, 4.000000, 4.000000
80.000000, 0.000000, 4234.871582, 4395.384277, 4237.436035, 3979.487061, 4307.692383, 450.000000, 8171.000000, 8300.000000, 0.000000, 0.000000, 0.000000, 1.000000, 371.000000, 1557622641.360220, 4.000000, 4.000000, 4.000000, 4.000000, 4.000000
81.000000, 0.000000, 4235.897461, 4364.102539, 4206.666504, 3994.871582, 4281.538574, 450.000000, 8173.000000, 8303.000000, 0.000000, 0.000000, 0.000000, 1.000000, 378.799988, 1557622641.368020, 4.000000, 4.000000, 4.000000, 4.000000, 4.000000
82.000000, 0.000000, 4222.563965, 4358.974121, 4207.179199, 3997.435791, 4264.102539, 450.000000, 8165.000000, 8307.000000, 0.000000, 0.000000, 0.000000, 1.000000, 386.700012, 1557622641.375920, 4.000000, 4.000000, 4.000000, 4.000000, 4.000000
83.000000, 0.000000, 4166.153809, 4382.563965, 4218.461426, 3990.769043, 4255.384277, 16196.000000, 8161.000000, 8306.000000, 0.000000, 0.000000, 0.000000, 1.000000, 394.399963, 1557622641.383620, 4.000000, 4.000000, 4.000000, 4.000000, 4.000000
84.000000, 0.000000, 4131.281738, 4385.127930, 4221.025391, 4004.102539, 4237.436035, 450.000000, 8152.000000, 8305.000000, 0.000000, 0.000000, 0.000000, 1.000000, 402.399963, 1557622641.391620, 4.000000, 4.000000, 4.000000, 4.000000, 4.000000
85.000000, 0.000000, 4111.281738, 4371.281738, 4214.871582, 4010.769043, 4217.436035, 450.000000, 8158.000000, 8315.000000, 0.000000, 0.000000, 0.000000, 1.000000, 410.399963, 1557622641.399620, 4.000000, 4.000000, 4.000000, 4.000000, 4.000000
86.000000, 0.000000, 4073.845947, 4379.487305, 4211.794922, 4001.025635, 4209.230469, 450.000000, 8153.000000, 8307.000000, 0.000000, 0.000000, 0.000000, 1.000000, 418.399963, 1557622641.407620, 4.000000, 4.000000, 4.000000, 4.000000, 4.000000
87.000000, 0.000000, 4042.051270, 4385.641113, 4221.538574, 3995.384521, 4190.769043, 16196.000000, 8149.000000, 8305.000000, 0.000000, 0.000000, 0.000000, 1.000000, 426.299988, 1557622641.415520, 4.000000, 4.000000, 4.000000, 4.000000, 4.000000
88.000000, 0.000000, 4026.666504, 4367.692383, 4206.666504, 3977.948730, 4156.922852, 450.000000, 8144.000000, 8322.000000, 0.000000, 0.000000, 0.000000, 1.000000, 434.099976, 1557622641.423320, 4.000000, 4.000000, 4.000000, 4.000000, 4.000000
89.000000, 0.000000, 4029.230713, 4362.563965, 4204.615234, 3963.589600, 4141.538574, 450.000000, 8143.000000, 8326.000000, 0.000000, 0.000000, 0.000000, 1.000000, 441.899963, 1557622641.431120, 4.000000, 4.000000, 4.000000, 4.000000, 4.000000
90.000000, 0.000000, 4037.435791, 4367.179199, 4215.384277, 3978.461426, 4154.871582, 450.000000, 8142.000000, 8317.000000, 0.000000, 0.000000, 0.000000, 1.000000, 449.700012, 1557622641.438920, 4.000000, 4.000000, 4.000000, 4.000000, 4.000000
91.000000, 0.000000, 4033.333252, 4358.461426, 4211.794922, 3985.128174, 4166.153809, 16196.000000, 8138.000000, 8317.000000, 0.000000, 0.000000, 0.000000, 1.000000, 457.500000, 1557622641.446720, 4.000000, 4.000000, 4.000000, 4.000000, 4.000000
92.000000, 0.000000, 4033.845947, 4355.384277, 4226.666504, 3977.948730, 4167.692383, 450.000000, 8133.000000, 8333.000000, 0.000000, 0.000000, 0.000000, 1.000000, 465.500000, 1557622641.454720, 4.000000, 4.000000, 4.000000, 4.000000, 4.000000
93.000000, 0.000000, 4038.461426, 4357.435547, 4215.897461, 3984.102539, 4167.179199, 450.000000, 8139.000000, 8326.000000, 0.000000, 0.000000, 0.000000, 1.000000, 473.500000, 1557622641.462720, 4.000000, 4.000000, 4.000000, 4.000000, 4.000000
94.000000, 0.000000, 4025.128174, 4358.461426, 4205.641113, 3986.666504, 4166.666504, 450.000000, 8133.000000, 8332.000000, 0.000000, 0.000000, 0.000000, 1.000000, 481.500000, 1557622641.470720, 4.000000, 4.000000, 4.000000, 4.000000, 4.000000
95.000000, 0.000000, 4011.281982, 4367.179199, 4221.538574, 3977.948730, 4169.743652, 16196.000000, 8136.000000, 8335.000000, 0.000000, 0.000000, 0.000000, 1.000000, 489.399963, 1557622641.478620, 4.000000, 4.000000, 4.000000, 4.000000, 4.000000
96.000000, 0.000000, 4011.281982, 4370.769043, 4217.948730, 3982.051270, 4170.256348, 450.000000, 8136.000000, 8337.000000, 0.000000, 0.000000, 0.000000, 1.000000, 497.200012, 1557622641.486420, 4.000000, 4.000000, 4.000000, 4.000000, 4.000000
97.000000, 0.000000, 4006.666504, 4361.538574, 4215.897461, 3989.230713, 4168.205078, 450.000000, 8131.000000, 8335.000000, 0.000000, 0.000000, 0.000000, 1.000000, 505.000000, 1557622641.494220, 4.000000, 4.000000, 4.000000, 4.000000, 4.000000
98.000000, 0.000000, 3991.794678, 4346.153809, 4208.205078, 3980.512695, 4156.922852, 450.000000, 8139.000000, 8339.000000, 0.000000, 0.000000, 0.000000, 1.000000, 512.799988, 1557622641.502020, 4.000000, 4.000000, 4.000000, 4.000000, 4.000000
99.000000, 0.000000, 3986.666504, 4335.897461, 4204.102539, 3977.435791, 4144.102539, 16196.000000, 8143.000000, 8334.000000, 0.000000, 0.000000, 0.000000, 1.000000, 520.500000, 1557622641.509720, 4.000000, 4.000000, 4.000000, 4.000000, 4.000000
100.000000, 0.000000, 3983.076904, 4332.820313, 4213.333008, 3987.179443, 4147.692383, 450.000000, 8144.000000, 8334.000000, 0.000000, 0.000000, 0.000000, 1.000000, 528.500000, 1557622641.517720, 4.000000, 4.000000, 4.000000, 4.000000, 4.000000
101.000000, 0.000000, 3974.358887, 4330.256348, 4213.333008, 3986.666504, 4143.076660, 450.000000, 8145.000000, 8337.000000, 0.000000, 0.000000, 0.000000, 1.000000, 536.500000, 1557622641.525720, 4.000000, 4.000000, 4.000000, 4.000000, 4.000000
102.000000, 0.000000, 3973.845947, 4337.436035, 4221.538574, 3982.051270, 4128.205078, 450.000000, 8147.000000, 8336.000000, 0.000000, 0.000000, 0.000000, 1.000000, 544.500000, 1557622641.533720, 4.000000, 4.000000, 4.000000, 4.000000, 4.000000
103.000000, 0.000000, 3973.333252, 4353.846191, 4219.487305, 3983.589600, 4138.974121, 16196.000000, 8153.000000, 8321.000000, 0.000000, 0.000000, 0.000000, 1.000000, 552.500000, 1557622641.541720, 4.000000, 4.000000, 4.000000, 4.000000, 4.000000
104.000000, 0.000000, 3964.615234, 4347.692383, 4225.641113, 3991.281982, 4162.051270, 450.000000, 8151.000000, 8321.000000, 0.000000, 0.000000, 0.000000, 1.000000, 560.399963, 1557622641.549620, 4.000000, 4.000000, 4.000000, 4.000000, 4.000000
105.000000, 0.000000, 3972.820313, 4342.051270, 4235.897461, 3993.333252, 4157.436035, 450.000000, 8154.000000, 8330.000000, 0.000000, 0.000000, 0.000000, 1.000000, 568.200012, 1557622641.557420, 4.000000, 4.000000, 4.000000, 4.000000, 4.000000
106.000000, 0.000000, 3986.153809, 4355.384277, 4212.307617, 3983.076904, 4138.974121, 450.000000, 8159.000000, 8331.000000, 0.000000, 0.000000, 0.000000, 1.000000, 576.000000, 1557622641.565220, 4.000000, 4.000000, 4.000000, 4.000000, 4.000000
107.000000, 0.000000, 3981.025635, 4349.743652, 4210.769043, 3981.025635, 4141.025391, 16196.000000, 8152.000000, 8318.000000, 0.000000, 0.000000, 0.000000, 1.000000, 583.799988, 1557622641.573020, 4.000000, 4.000000, 4.000000, 4.000000, 4.000000
108.000000, 0.000000, 3983.076904, 4345.127930, 4217.436035, 3990.256348, 4152.307617, 450.000000, 8155.000000, 8323.000000, 0.000000, 0.000000, 0.000000, 1.000000, 591.500000, 1557622641.580720, 4.000000, 4.000000, 4.000000, 4.000000, 4.000000
109.000000, 0.000000, 3984.615234, 4358.974121, 4219.487305, 3993.333252, 4166.153809, 450.000000, 8156.000000, 8326.000000, 0.000000, 0.000000, 0.000000, 1.000000, 599.500000, 1557622641.588720, 4.000000, 4.000000, 4.000000, 4.000000, 4.000000
110.000000, 0.000000, 3981.538330, 4356.410156, 4225.641113, 3994.358887, 4165.641113, 450.000000, 8151.000000, 8319.000000, 0.000000, 0.000000, 0.000000, 1.000000, 607.500000, 1557622641.596720, 4.000000, 4.000000, 4.000000, 4.000000, 4.000000
111.000000, 0.000000, 3988.717773, 4339.487305, 4210.256348, 4002.563965, 4155.897461, 16196.000000, 8157.000000, 8322.000000, 0.000000, 0.000000, 0.000000, 1.000000, 615.500000, 1557622641.604720, 4.000000, 4.000000, 4.000000, 4.000000, 4.000000
112.000000, 0.000000, 3976.410156, 4329.743652, 4212.820313, 3998.461426, 4155.897461, 450.000000, 8152.000000, 8318.000000, 0.000000, 0.000000, 0.000000, 1.000000, 623.200012, 1557622641.612420, 4.000000, 4.000000, 4.000000, 4.000000, 4.000000
113.000000, 0.000000, 3956.410156, 4326.666504, 4217.436035, 3985.128174, 4147.692383, 450.000000, 8149.000000, 8324.000000, 0.000000, 0.000000, 0.000000, 1.000000, 631.000000, 1557622641.620220, 4.000000, 4.000000, 4.000000, 4.000000, 4.000000
114.000000, 0.000000, 3969.230713, 4335.384277, 4202.051270, 3984.102539, 4131.281738, 450.000000, 8142.000000, 8331.000000, 0.000000, 0.000000, 0.000000, 1.000000, 638.799988, 1557622641.628020, 4.000000, 4.000000, 4.000000, 4.000000, 4.000000
115.000000, 0.000000, 3976.923096, 4331.281738, 4201.538574, 3978.461426, 4128.717773, 16196.000000, 8139.000000, 8335.000000, 0.000000, 0.000000, 0.000000, 1.000000, 646.599976, 1557622641.635820, 4.000000, 4.000000, 4.000000, 4.000000, 4.000000
116.000000, 0.000000, 3966.153809, 4314.358887, 4201.025391, 3970.256348, 4136.922852, 450.000000, 8141.000000, 8322.000000, 0.000000, 0.000000, 0.000000, 1.000000, 654.500000, 1557622641.643720, 4.000000, 4.000000, 4.000000, 4.000000, 4.000000
117.000000, 0.000000, 3972.820313, 4329.230469, 4209.743652, 3987.692139, 4136.922852, 450.000000, 8136.000000, 8325.000000, 0.000000, 0.000000, 0.000000, 1.000000, 662.500000, 1557622641.651720, 4.000000, 4.000000, 4.000000, 4.000000, 4.000000
118.000000, 0.000000, 3968.717773, 4351.281738, 4221.025391, 3996.923096, 4136.410156, 450.000000, 8136.000000, 8341.000000, 0.000000, 0.000000, 0.000000, 1.000000, 670.500000, 1557622641.659720, 4.000000, 4.000000, 4.000000, 4.000000, 4.000000
119.000000, 0.000000, 3953.333252, 4341.025391, 4220.000000, 3984.615234, 4132.307617, 16196.000000, 8136.000000, 8336.000000, 0.000000, 0.000000, 0.000000, 1.000000, 678.499988, 1557622641.667720, 4.000000, 4.000000, 4.000000, 4.000000, 4.000000
120.000000, 0.000000, 3957.435791, 4323.589844, 4216.410156, 3974.871582, 4124.615234, 450.000000, 8130.000000, 8325.000000, 0.000000, 0.000000, 0.000000, 1.000000, 686.399988, 1557622641.675620, 4.000000, 4.000000, 4.000000, 4.000000, 4.000000
121.000000, 0.000000, 3950.256348, 4327.179199, 4194.871582, 3963.076904, 4119.487305, 450.000000, 8139.000000, 8334.000000, 0.000000, 0.000000, 0.000000, 1.000000, 694.199987, 1557622641.683420, 4.000000, 4.000000, 4.000000, 4.000000, 4.000000
122.000000, 0.000000, 3934.358887, 4338.461426, 4197.948730, 3956.923096, 4111.794922, 450.000000, 8140.000000, 8339.000000, 0.000000, 0.000000, 0.000000, 1.000000, 701.999989, 1557622641.691220, 4.000000, 4.000000, 4.000000, 4.000000, 4.000000
123.000000, 0.000000, 3947.692139, 4342.563965, 4222.563965, 3973.333252, 4122.051270, 16196.000000, 8135.000000, 8338.000000, 0.000000, 0.000000, 0.000000, 1.000000, 709.799988, 1557622641.699020, 4.000000, 4.000000, 4.000000, 4.000000, 4.000000
124.000000, 0.000000, 3974.871582, 4339.487305, 4227.179199, 3987.692139, 4142.563965, 450.000000, 8135.000000, 8347.000000, 0.000000, 0.000000, 0.000000, 1.000000, 717.599987, 1557622641.706820, 4.000000, 4.000000, 4.000000, 4.000000, 4.000000
125.000000, 0.000000, 3983.076904, 4334.358887, 4225.641113, 3980.512695, 4144.615234, 450.000000, 8134.000000, 8342.000000, 0.000000, 0.000000, 0.000000, 1.000000, 725.499989, 1557622641.714720, 4.000000, 4.000000, 4.000000, 4.000000, 4.000000
126.000000, 0.000000, 3980.512695, 4332.307617, 4209.743652, 3975.897217, 4136.410156, 450.000000, 8137.000000, 8334.000000, 0.000000, 0.000000, 0.000000, 1.000000, 733.499989, 1557622641.722720, 4.000000, 4.000000, 4.000000, 4.000000, 4.000000
127.000000, 0.000000, 3982.563965, 4325.127930, 4210.256348, 3990.256348, 4144.102539, 16196.000000, 8135.000000, 8344.000000, 0.000000, 0.000000, 0.000000, 1.000000, 741.499989, 1557622641.730720, 4.000000, 4.000000, 4.000000, 4.000000, 4.000000
128.000000, 0.000000, 3990.769043, 4327.692383, 4220.000000, 3998.461426, 4157.436035, 500.000000, 8140.000000, 8342.000000, 0.000000, 0.000000, 0.000000, 1.000000, 749.499985, 1557622641.738720, 4.000000, 4.000000, 4.000000, 4.000000, 4.000000
0.000000, 0.000000, 3991.281982, 4351.281738, 4205.127930, 3986.666504, 4157.436035, 500.000000, 8145.000000, 8333.000000, 0.000000, 0.000000, 0.000000, 1.000000, 757.199989, 1557622641.746420, 4.000000, 4.000000, 4.000000, 4.000000, 4.000000
1.000000, 0.000000, 3986.666504, 4367.179199, 4208.717773, 3988.205078, 4161.025391, 500.000000, 8143.000000, 8337.000000, 0.000000, 0.000000, 0.000000, 1.000000, 764.999985, 1557622641.754220, 4.000000, 4.000000, 4.000000, 4.000000, 4.000000
2.000000, 0.000000, 4002.051270, 4356.410156, 4214.871582, 4015.384521, 4173.846191, 16189.000000, 8147.000000, 8346.000000, 0.000000, 0.000000, 0.000000, 1.000000, 772.799988, 1557622641.762020, 4.000000, 4.000000, 4.000000, 4.000000, 4.000000
3.000000, 0.000000, 4013.845947, 4345.641113, 4216.410156, 4013.845947, 4173.333008, 500.000000, 8147.000000, 8348.000000, 0.000000, 0.000000, 0.000000, 1.000000, 780.699989, 1557622641.769920, 4.000000, 4.000000, 4.000000, 4.000000, 4.000000
4.000000, 0.000000, 3998.974365, 4351.281738, 4214.871582, 3992.307617, 4160.000000, 16185.000000, 8151.000000, 8335.000000, 0.000000, 0.000000, 0.000000, 1.000000, 788.499985, 1557622641.777720, 4.000000, 4.000000, 4.000000, 4.000000, 4.000000
5.000000, 0.000000, 3986.153809, 4349.743652, 4202.051270, 3995.384521, 4149.743652, 500.000000, 8149.000000, 8333.000000, 0.000000, 0.000000, 0.000000, 1.000000, 796.499985, 1557622641.785720, 4.000000, 4.000000, 4.000000, 4.000000, 4.000000
6.000000, 0.000000, 3986.153809, 4347.179199, 4203.076660, 4006.666504, 4135.897461, 16166.000000, 8148.000000, 8337.000000, 0.000000, 0.000000, 0.000000, 1.000000, 804.499985, 1557622641.793720, 4.000000, 4.000000, 4.000000, 4.000000, 4.000000
7.000000, 0.000000, 3974.358887, 4346.153809, 4193.333008, 3995.384521, 4118.974121, 500.000000, 8150.000000, 8338.000000, 0.000000, 0.000000, 0.000000, 1.000000, 812.499985, 1557622641.801720, 4.000000, 4.000000, 4.000000, 4.000000, 4.000000
8.000000, 0.000000, 3966.153809, 4344.102539, 4197.948730, 3984.615234, 4123.076660, 500.000000, 8145.000000, 8334.000000, 0.000000, 0.000000, 0.000000, 1.000000, 820.399994, 1557622641.809620, 4.000000, 4.000000, 4.000000, 4.000000, 4.000000
9.000000, 0.000000, 3980.000000, 4342.051270, 4221.538574, 4002.051270, 4137.948730, 280.000000, 8149.000000, 8332.000000, 0.000000, 0.000000, 0.000000, 1.000000, 828.199982, 1557622641.817420, 4.000000, 4.000000, 4.000000, 4.000000, 4.000000
10.000000, 0.000000, 3988.717773, 4338.461426, 4211.794922, 4014.358887, 4137.948730, 500.000000, 8154.000000, 8332.000000, 0.000000, 0.000000, 0.000000, 1.000000, 835.999985, 1557622641.825220, 4.000000, 4.000000, 4.000000, 4.000000, 4.000000
11.000000, 0.000000, 3991.281982, 4347.692383, 4210.256348, 4001.538330, 4132.307617, 16172.000000, 8149.000000, 8339.000000, 0.000000, 0.000000, 0.000000, 1.000000, 843.799988, 1557622641.833020, 4.000000, 4.000000, 4.000000, 4.000000, 4.000000
12.000000, 0.000000, 3993.333252, 4358.974121, 4209.230469, 3992.820313, 4135.897461, 500.000000, 8151.000000, 8344.000000, 0.000000, 0.000000, 0.000000, 1.000000, 851.699982, 1557622641.840920, 4.000000, 4.000000, 4.000000, 4.000000, 4.000000
13.000000, 0.000000, 3983.076904, 4348.205078, 4203.589844, 4004.615234, 4145.127930, 500.000000, 8152.000000, 8333.000000, 0.000000, 0.000000, 0.000000, 1.000000, 859.699982, 1557622641.848920, 4.000000, 4.000000, 4.000000, 4.000000, 4.000000
14.000000, 0.000000, 3987.692139, 4348.717773, 4210.769043, 4009.743408, 4155.897461, 450.000000, 8156.000000, 8336.000000, 0.000000, 0.000000, 0.000000, 1.000000, 867.499985, 1557622641.856720, 4.000000, 4.000000, 4.000000, 4.000000, 4.000000
15.000000, 0.000000, 4018.974365, 4372.307617, 4201.538574, 4004.615234, 4168.205078, 16172.000000, 8150.000000, 8343.000000, 0.000000, 0.000000, 0.000000, 1.000000, 875.499985, 1557622641.864720, 4.000000, 4.000000, 4.000000, 4.000000, 4.000000
16.000000, 0.000000, 4032.307617, 4369.230469, 4206.153809, 4019.487061, 4177.948730, 0.000000, 8145.000000, 8345.000000, 0.000000, 0.000000, 0.000000, 1.000000, 883.399994, 1557622641.872620, 4.000000, 4.000000, 4.000000, 4.000000, 4.000000
17.000000, 0.000000, 4032.820313, 4359.487305, 4211.281738, 4027.692139, 4179.487305, 0.000000, 8150.000000, 8334.000000, 0.000000, 0.000000, 0.000000, 1.000000, 891.199982, 1557622641.880420, 4.000000, 4.000000, 4.000000, 4.000000, 4.000000
18.000000, 0.000000, 4049.743408, 4381.025391, 4207.692383, 4015.384521, 4182.563965, 0.000000, 8148.000000, 8346.000000, 0.000000, 0.000000, 0.000000, 1.000000, 898.999985, 1557622641.888220, 4.000000, 4.000000, 4.000000, 4.000000, 4.000000
19.000000, 0.000000, 4047.179443, 4385.127930, 4217.948730, 4014.871582, 4199.487305, 0.000000, 8147.000000, 8351.000000, 0.000000, 0.000000, 0.000000, 1.000000, 906.799988, 1557622641.896020, 4.000000, 4.000000, 4.000000, 4.000000, 4.000000
20.000000, 0.000000, 4023.589600, 4359.487305, 4215.384277, 4022.563965, 4201.025391, 0.000000, 8145.000000, 8353.000000, 0.000000, 0.000000, 0.000000, 1.000000, 914.599991, 1557622641.903820, 4.000000, 4.000000, 4.000000, 4.000000, 4.000000
21.000000, 0.000000, 4011.794678, 4338.461426, 4212.820313, 4015.897217, 4171.794922, 0.000000, 8147.000000, 8346.000000, 0.000000, 0.000000, 0.000000, 1.000000, 922.499985, 1557622641.911720, 4.000000, 4.000000, 4.000000, 4.000000, 4.000000
22.000000, 0.000000, 4002.563965, 4325.127930, 4204.102539, 4002.051270, 4137.948730, 0.000000, 8150.000000, 8349.000000, 0.000000, 0.000000, 0.000000, 1.000000, 930.499985, 1557622641.919720, 4.000000, 4.000000, 4.000000, 4.000000, 4.000000
23.000000, 0.000000, 4001.025635, 4328.717773, 4197.948730, 3999.487061, 4123.589844, 0.000000, 8153.000000, 8348.000000, 0.000000, 0.000000, 0.000000, 1.000000, 938.500000, 1557622641.927720, 4.000000, 4.000000, 4.000000, 4.000000, 4.000000
24.000000, 0.000000, 4015.384521, 4355.897461, 4208.205078, 3998.974365, 4128.717773, 0.000000, 8153.000000, 8349.000000, 0.000000, 0.000000, 0.000000, 1.000000, 946.500000, 1557622641.935720, 4.000000, 4.000000, 4.000000, 4.000000, 4.000000
25.000000, 0.000000, 4002.051270, 4367.692383, 4197.948730, 3986.153809, 4128.205078, 0.000000, 8151.000000, 8355.000000, 0.000000, 0.000000, 0.000000, 1.000000, 954.199982, 1557622641.943420, 4.000000, 4.000000, 4.000000, 4.000000, 4.000000
26.000000, 0.000000, 3982.051270, 4349.230469, 4197.436035, 3973.333252, 4107.692383, 0.000000, 8146.000000, 8349.000000, 0.000000, 0.000000, 0.000000, 1.000000, 962.000000, 1557622641.951220, 4.000000, 4.000000, 4.000000, 4.000000, 4.000000
27.000000, 0.000000, 3998.461426, 4335.897461, 4203.589844, 3980.000000, 4096.922852, 0.000000, 8156.000000, 8349.000000, 0.000000, 0.000000, 0.000000, 1.000000, 969.799988, 1557622641.959020, 4.000000, 4.000000, 4.000000, 4.000000, 4.000000
28.000000, 0.000000, 3994.871582, 4343.589844, 4201.538574, 3995.384521, 4107.179199, 0.000000, 8151.000000, 8356.000000, 0.000000, 0.000000, 0.000000, 1.000000, 977.599976, 1557622641.966820, 4.000000, 4.000000, 4.000000, 4.000000, 4.000000
29.000000, 0.000000, 3951.794678, 4350.256348, 4214.358887, 3989.230713, 4096.922852, 0.000000, 8147.000000, 8356.000000, 0.000000, 0.000000, 0.000000, 1.000000, 985.500000, 1557622641.974720, 4.000000, 4.000000, 4.000000, 4.000000, 4.000000
30.000000, 0.000000, 3926.153809, 4333.846191, 4212.307617, 3981.538330, 4075.897217, 0.000000, 8150.000000, 8345.000000, 0.000000, 0.000000, 0.000000, 1.000000, 993.500000, 1557622641.982720, 4.000000, 4.000000, 4.000000, 4.000000, 4.000000
31.000000, 0.000000, 3945.640869, 4318.974121, 4218.974121, 4000.512695, 4094.871582, 0.000000, 8152.000000, 8344.000000, 0.000000, 0.000000, 0.000000, 2.000000, 1.500000, 1557622641.990720, 4.000000, 4.000000, 4.000000, 4.000000, 4.000000
32.000000, 0.000000, 3983.589600, 4332.820313, 4231.794922, 4018.974365, 4124.615234, 0.000000, 8147.000000, 8354.000000, 0.000000, 0.000000, 0.000000, 2.000000, 9.500000, 1557622641.998720, 4.000000, 4.000000, 4.000000, 4.000000, 4.000000
33.000000, 0.000000, 3995.384521, 4345.641113, 4221.538574, 4018.974365, 4126.153809, 0.000000, 8152.000000, 8353.000000, 0.000000, 0.000000, 0.000000, 2.000000, 17.399994, 1557622642.006620, 4.000000, 4.000000, 4.000000, 4.000000, 4.000000
34.000000, 0.000000, 3981.025635, 4343.076660, 4225.641113, 4010.769043, 4124.615234, 0.000000, 8145.000000, 8346.000000, 0.000000, 0.000000, 0.000000, 2.000000, 25.199982, 1557622642.014420, 4.000000, 4.000000, 4.000000, 4.000000, 4.000000
35.000000, 0.000000, 3970.769043, 4340.000000, 4216.922852, 3990.769043, 4125.641113, 0.000000, 8147.000000, 8347.000000, 0.000000, 0.000000, 0.000000, 2.000000, 33.000000, 1557622642.022220, 4.000000, 4.000000, 4.000000, 4.000000, 4.000000
36.000000, 0.000000, 3974.871582, 4329.743652, 4199.487305, 3981.538330, 4119.487305, 0.000000, 8152.000000, 8349.000000, 0.000000, 0.000000, 0.000000, 2.000000, 40.799988, 1557622642.030020, 4.000000, 4.000000, 4.000000, 4.000000, 4.000000
37.000000, 0.000000, 3983.076904, 4326.153809, 4202.563965, 3995.897217, 4125.127930, 0.000000, 8151.000000, 8346.000000, 0.000000, 0.000000, 0.000000, 2.000000, 48.500000, 1557622642.037720, 4.000000, 4.000000, 4.000000, 4.000000, 4.000000
38.000000, 0.000000, 3987.692139, 4340.512695, 4203.589844, 3995.897217, 4137.948730, 0.000000, 8145.000000, 8348.000000, 0.000000, 0.000000, 0.000000, 2.000000, 56.500000, 1557622642.045720, 4.000000, 4.000000, 4.000000, 4.000000, 4.000000
39.000000, 0.000000, 3982.051270, 4344.615234, 4211.281738, 3987.692139, 4141.025391, 0.000000, 8151.000000, 8343.000000, 0.000000, 0.000000, 0.000000, 2.000000, 64.500000, 1557622642.053720, 4.000000, 4.000000, 4.000000, 4.000000, 4.000000
40.000000, 0.000000, 3984.102539, 4343.076660, 4203.589844, 3998.974365, 4145.641113, 0.000000, 8153.000000, 8348.000000, 0.000000, 0.000000, 0.000000, 2.000000, 72.500000, 1557622642.061720, 4.000000, 4.000000, 4.000000, 4.000000, 4.000000
41.000000, 0.000000, 4011.794678, 4353.846191, 4203.076660, 4006.666504, 4141.025391, 0.000000, 8146.000000, 8359.000000, 0.000000, 0.000000, 0.000000, 2.000000, 80.500000, 1557622642.069720, 4.000000, 4.000000, 4.000000, 4.000000, 4.000000
42.000000, 0.000000, 4027.179443, 4349.230469, 4218.461426, 3997.435791, 4123.076660, 0.000000, 8151.000000, 8358.000000, 0.000000, 0.000000, 0.000000, 2.000000, 88.199982, 1557622642.077420, 4.000000, 4.000000, 4.000000, 4.000000, 4.000000
43.000000, 0.000000, 4012.820313, 4346.666504, 4216.410156, 3993.333252, 4121.538574, 0.000000, 8151.000000, 8350.000000, 0.000000, 0.000000, 0.000000, 2.000000, 96.000000, 1557622642.085220, 4.000000, 4.000000, 4.000000, 4.000000, 4.000000
44.000000, 0.000000, 3993.845947, 4360.512695, 4223.589844, 3993.845947, 4120.512695, 0.000000, 8150.000000, 8351.000000, 0.000000, 0.000000, 0.000000, 2.000000, 103.799988, 1557622642.093020, 4.000000, 4.000000, 4.000000, 4.000000, 4.000000
45.000000, 0.000000, 3975.384521, 4354.871582, 4218.461426, 3987.179443, 4106.153809, 0.000000, 8145.000000, 8362.000000, 0.000000, 0.000000, 0.000000, 2.000000, 111.699982, 1557622642.100920, 4.000000, 4.000000, 4.000000, 4.000000, 4.000000
46.000000, 0.000000, 3969.743408, 4337.948730, 4207.179199, 3985.640869, 4100.000000, 0.000000, 8147.000000, 8366.000000, 0.000000, 0.000000, 0.000000, 2.000000, 119.500000, 1557622642.108720, 4.000000, 4.000000, 4.000000, 4.000000, 4.000000
47.000000, 0.000000, 3984.615234, 4329.743652, 4209.743652, 3991.281982, 4099.487305, 0.000000, 8147.000000, 8355.000000, 0.000000, 0.000000, 0.000000, 2.000000, 127.500000, 1557622642.116720, 4.000000, 4.000000, 4.000000, 4.000000, 4.000000
48.000000, 0.000000, 3997.948730, 4331.281738, 4196.922852, 3994.871582, 4106.153809, 0.000000, 8142.000000, 8364.000000, 0.000000, 0.000000, 0.000000, 2.000000, 135.500000, 1557622642.124720, 4.000000, 4.000000, 4.000000, 4.000000, 4.000000
49.000000, 0.000000, 3991.281982, 4346.666504, 4205.127930, 4008.717773, 4132.307617, 0.000000, 8143.000000, 8366.000000, 0.000000, 0.000000, 0.000000, 2.000000, 143.500000, 1557622642.132720, 4.000000, 4.000000, 4.000000, 4.000000, 4.000000
50.000000, 0.000000, 3976.410156, 4355.384277, 4221.025391, 4011.794678, 4138.461426, 0.000000, 8146.000000, 8364.000000, 0.000000, 0.000000, 0.000000, 2.000000, 151.199982, 1557622642.140420, 4.000000, 4.000000, 4.000000, 4.000000, 4.000000
51.000000, 0.000000, 3971.281982, 4345.127930, 4215.897461, 3986.153809, 4106.153809, 0.000000, 8141.000000, 8362.000000, 0.000000, 0.000000, 0.000000, 2.000000, 159.000000, 1557622642.148220, 4.000000, 4.000000, 4.000000, 4.000000, 4.000000
52.000000, 0.000000, 3975.897217, 4336.410156, 4204.102539, 3976.410156, 4101.025391, 0.000000, 8142.000000, 8362.000000, 0.000000, 0.000000, 0.000000, 2.000000, 166.799988, 1557622642.156020, 4.000000, 4.000000, 4.000000, 4.000000, 4.000000
53.000000, 0.000000, 3975.384521, 4337.436035, 4194.358887, 3993.845947, 4128.205078, 0.000000, 8142.000000, 8355.000000, 0.000000, 0.000000, 0.000000, 2.000000, 174.599976, 1557622642.163820, 4.000000, 4.000000, 4.000000, 4.000000, 4.000000
54.000000, 0.000000, 3968.717773, 4333.846191, 4205.127930, 3987.179443, 4122.563965, 0.000000, 8143.000000, 8366.000000, 0.000000, 0.000000, 0.000000, 2.000000, 182.500000, 1557622642.171720, 4.000000, 4.000000, 4.000000, 4.000000, 4.000000
55.000000, 0.000000, 3976.410156, 4337.436035, 4207.692383, 3966.666504, 4102.563965, 0.000000, 8142.000000, 8365.000000, 0.000000, 0.000000, 0.000000, 2.000000, 190.500000, 1557622642.179720, 4.000000, 4.000000, 4.000000, 4.000000, 4.000000
56.000000, 0.000000, 3998.974365, 4348.205078, 4206.666504, 3976.923096, 4117.436035, 0.000000, 8144.000000, 8360.000000, 0.000000, 0.000000, 0.000000, 2.000000, 198.500000, 1557622642.187720, 4.000000, 4.000000, 4.000000, 4.000000, 4.000000
57.000000, 0.000000, 4006.153809, 4345.641113, 4224.102539, 3993.333252, 4142.051270, 0.000000, 8148.000000, 8356.000000, 0.000000, 0.000000, 0.000000, 2.000000, 206.500000, 1557622642.195720, 4.000000, 4.000000, 4.000000, 4.000000, 4.000000
58.000000, 0.000000, 3992.307617, 4334.358887, 4215.384277, 3986.153809, 4136.410156, 0.000000, 8146.000000, 8368.000000, 0.000000, 0.000000, 0.000000, 2.000000, 214.399963, 1557622642.203620, 4.000000, 4.000000, 4.000000, 4.000000, 4.000000
59.000000, 0.000000, 3985.640869, 4336.922852, 4217.948730, 3985.128174, 4134.358887, 0.000000, 8136.000000, 8369.000000, 0.000000, 0.000000, 0.000000, 2.000000, 222.200012, 1557622642.211420, 4.000000, 4.000000, 4.000000, 4.000000, 4.000000
60.000000, 0.000000, 3999.487061, 4347.179199, 4231.794922, 3995.897217, 4150.769043, 0.000000, 8151.000000, 8357.000000, 0.000000, 0.000000, 0.000000, 2.000000, 230.000000, 1557622642.219220, 4.000000, 4.000000, 4.000000, 4.000000, 4.000000
61.000000, 0.000000, 4004.102539, 4328.717773, 4216.410156, 3996.410156, 4147.692383, 0.000000, 8152.000000, 8355.000000, 0.000000, 0.000000, 0.000000, 2.000000, 237.799988, 1557622642.227020, 4.000000, 4.000000, 4.000000, 4.000000, 4.000000
62.000000, 0.000000, 4005.640869, 4317.948730, 4210.769043, 3994.871582, 4134.358887, 0.000000, 8152.000000, 8361.000000, 0.000000, 0.000000, 0.000000, 2.000000, 245.700012, 1557622642.234920, 4.000000, 4.000000, 4.000000, 4.000000, 4.000000
63.000000, 0.000000, 4023.589600, 4344.615234, 4212.820313, 3997.435791, 4132.820313, 0.000000, 8152.000000, 8355.000000, 0.000000, 0.000000, 0.000000, 2.000000, 253.599976, 1557622642.242820, 4.000000, 4.000000, 4.000000, 4.000000, 4.000000
64.000000, 0.000000, 4026.666504, 4358.974121, 4221.025391, 3996.923096, 4142.051270, 500.000000, 8150.000000, 8355.000000, 0.000000, 0.000000, 0.000000, 2.000000, 261.599976, 1557622642.250820, 4.000000, 4.000000, 4.000000, 4.000000, 4.000000
65.000000, 0.000000, 4009.230713, 4345.127930, 4218.974121, 3987.692139, 4149.230469, 500.000000, 8152.000000, 8361.000000, 0.000000, 0.000000, 0.000000, 2.000000, 269.599976, 1557622642.258820, 4.000000, 4.000000, 4.000000, 4.000000, 4.000000
66.000000, 0.000000, 3998.461426, 4336.410156, 4206.153809, 3981.025635, 4142.051270, 16197.000000, 8154.000000, 8358.000000, 0.000000, 0.000000, 0.000000, 2.000000, 277.599976, 1557622642.266820, 4.000000, 4.000000, 4.000000, 4.000000, 4.000000
67.000000, 0.000000, 3998.974365, 4346.153809, 4219.487305, 3996.410156, 4133.846191, 500.000000, 8155.000000, 8349.000000, 0.000000, 0.000000, 0.000000, 2.000000, 285.299988, 1557622642.274520, 4.000000, 4.000000, 4.000000, 4.000000, 4.000000
68.000000, 0.000000, 3996.923096, 4343.589844, 4214.358887, 4007.179443, 4137.948730, 16177.000000, 8152.000000, 8360.000000, 0.000000, 0.000000, 0.000000, 2.000000, 293.099976, 1557622642.282320, 4.000000, 4.000000, 4.000000, 4.000000, 4.000000
69.000000, 0.000000, 3996.923096, 4318.974121, 4205.641113, 3996.923096, 4132.307617, 500.000000, 8151.000000, 8350.000000, 0.000000, 0.000000, 0.000000, 2.000000, 300.899963, 1557622642.290120, 4.000000, 4.000000, 4.000000, 4.000000, 4.000000
70.000000, 0.000000, 4000.000000, 4304.615234, 4210.256348, 3995.384521, 4118.461426, 16183.000000, 8149.000000, 8340.000000, 0.000000, 0.000000, 0.000000, 2.000000, 308.799988, 1557622642.298020, 4.000000, 4.000000, 4.000000, 4.000000, 4.000000
71.000000, 0.000000, 4001.025635, 4313.333008, 4212.307617, 4008.717773, 4128.205078, 500.000000, 8147.000000, 8347.000000, 0.000000, 0.000000, 0.000000, 2.000000, 316.599976, 1557622642.305820, 4.000000, 4.000000, 4.000000, 4.000000, 4.000000
72.000000, 0.000000, 4012.820313, 4333.333008, 4223.589844, 4008.205078, 4144.102539, 500.000000, 8144.000000, 8351.000000, 0.000000, 0.000000, 0.000000, 2.000000, 324.599976, 1557622642.313820, 4.000000, 4.000000, 4.000000, 4.000000, 4.000000
73.000000, 0.000000, 4028.717773, 4349.743652, 4214.871582, 3995.897217, 4148.717773, 283.000000, 8143.000000, 8345.000000, 0.000000, 0.000000, 0.000000, 2.000000, 332.599976, 1557622642.321820, 4.000000, 4.000000, 4.000000, 4.000000, 4.000000
74.000000, 0.000000, 4027.692139, 4346.153809, 4214.358887, 4004.102539, 4152.820313, 500.000000, 8141.000000, 8346.000000, 0.000000, 0.000000, 0.000000, 2.000000, 340.500000, 1557622642.329720, 4.000000, 4.000000, 4.000000, 4.000000, 4.000000
75.000000, 0.000000, 4018.461426, 4325.127930, 4227.179199, 4017.948730, 4148.717773, 16200.000000, 8134.000000, 8352.000000, 0.000000, 0.000000, 0.000000, 2.000000, 348.200012, 1557622642.337420, 4.000000, 4.000000, 4.000000, 4.000000, 4.000000
76.000000, 0.000000, 4021.538330, 4325.641113, 4218.974121, 4016.923096, 4145.127930, 500.000000, 8137.000000, 8354.000000, 0.000000, 0.000000, 0.000000, 2.000000, 356.000000, 1557622642.345220, 4.000000, 4.000000, 4.000000, 4.000000, 4.000000
77.000000, 0.000000, 4014.871582, 4334.871582, 4222.563965, 4011.794678, 4144.102539, 500.000000, 8140.000000, 8354.000000, 0.000000, 0.000000, 0.000000, 2.000000, 363.799988, 1557622642.353020, 4.000000, 4.000000, 4.000000, 4.000000, 4.000000
78.000000, 0.000000, 3994.358887, 4325.641113, 4212.820313, 4006.666504, 4126.666504, 450.000000, 8138.000000, 8357.000000, 0.000000, 0.000000, 0.000000, 2.000000, 371.599976, 1557622642.360820, 4.000000, 4.000000, 4.000000, 4.000000, 4.000000
79.000000, 0.000000, 4012.820313, 4330.769043, 4206.666504, 4008.205078, 4127.179199, 16200.000000, 8145.000000, 8359.000000, 0.000000, 0.000000, 0.000000, 2.000000, 379.500000, 1557622642.368720, 4.000000, 4.000000, 4.000000, 4.000000, 4.000000
80.000000, 0.000000, 4049.230713, 4350.256348, 4225.641113, 4008.717773, 4160.000000, 450.000000, 8146.000000, 8358.000000, 0.000000, 0.000000, 0.000000, 2.000000, 387.500000, 1557622642.376720, 4.000000, 4.000000, 4.000000, 4.000000, 4.000000
81.000000, 0.000000, 4062.051270, 4351.281738, 4214.358887, 3999.487061, 4174.871582, 450.000000, 8144.000000, 8365.000000, 0.000000, 0.000000, 0.000000, 2.000000, 395.500000, 1557622642.384720, 4.000000, 4.000000, 4.000000, 4.000000, 4.000000
82.000000, 0.000000, 4061.538330, 4352.820313, 4209.230469, 3989.743408, 4168.205078, 450.000000, 8142.000000, 8373.000000, 0.000000, 0.000000, 0.000000, 2.000000, 403.500000, 1557622642.392720, 4.000000, 4.000000, 4.000000, 4.000000, 4.000000
83.000000, 0.000000, 4051.794678, 4362.051270, 4216.410156, 3987.179443, 4167.692383, 16200.000000, 8145.000000, 8361.000000, 0.000000, 0.000000, 0.000000, 2.000000, 411.399963, 1557622642.400620, 4.000000, 4.000000, 4.000000, 4.000000, 4.000000
84.000000, 0.000000, 4034.871582, 4352.820313, 4206.666504, 3988.205078, 4160.000000, 450.000000, 8145.000000, 8361.000000, 0.000000, 0.000000, 0.000000, 2.000000, 419.200012, 1557622642.408420, 4.000000, 4.000000, 4.000000, 4.000000, 4.000000
85.000000, 0.000000, 4034.871582, 4338.461426, 4202.563965, 3990.769043, 4142.051270, 450.000000, 8150.000000, 8367.000000, 0.000000, 0.000000, 0.000000, 2.000000, 427.000000, 1557622642.416220, 4.000000, 4.000000, 4.000000, 4.000000, 4.000000
86.000000, 0.000000, 4036.410156, 4340.512695, 4201.025391, 3992.307617, 4145.127930, 450.000000, 8151.000000, 8361.000000, 0.000000, 0.000000, 0.000000, 2.000000, 434.799988, 1557622642.424020, 4.000000, 4.000000, 4.000000, 4.000000, 4.000000
87.000000, 0.000000, 4018.461426, 4346.153809, 4207.692383, 3986.153809, 4153.846191, 16200.000000, 8152.000000, 8362.000000, 0.000000, 0.000000, 0.000000, 2.000000, 442.599976, 1557622642.431820, 4.000000, 4.000000, 4.000000, 4.000000, 4.000000
88.000000, 0.000000, 4017.435791, 4349.230469, 4208.205078, 3982.563965, 4136.922852, 450.000000, 8152.000000, 8369.000000, 0.000000, 0.000000, 0.000000, 2.000000, 450.500000, 1557622642.439720, 4.000000, 4.000000, 4.000000, 4.000000, 4.000000
89.000000, 0.000000, 4028.205078, 4349.743652, 4211.281738, 3986.153809, 4124.102539, 450.000000, 8154.000000, 8363.000000, 0.000000, 0.000000, 0.000000, 2.000000, 458.500000, 1557622642.447720, 4.000000, 4.000000, 4.000000, 4.000000, 4.000000
90.000000, 0.000000, 4008.205078, 4342.051270, 4225.641113, 3984.615234, 4133.846191, 450.000000, 8154.000000, 8355.000000, 0.000000, 0.000000, 0.000000, 2.000000, 466.500000, 1557622642.455720, 4.000000, 4.000000, 4.000000, 4.000000, 4.000000
91.000000, 0.000000, 3987.692139, 4335.384277, 4216.922852, 3982.051270, 4140.512695, 16200.000000, 8160.000000, 8356.000000, 0.000000, 0.000000, 0.000000, 2.000000, 474.500000, 1557622642.463720, 4.000000, 4.000000, 4.000000, 4.000000, 4.000000
92.000000, 0.000000, 4003.589600, 4347.692383, 4216.922852, 3985.128174, 4132.820313, 450.000000, 8158.000000, 8354.000000, 0.000000, 0.000000, 0.000000, 2.000000, 482.200012, 1557622642.471420, 4.000000, 4.000000, 4.000000, 4.000000, 4.000000
93.000000, 0.000000, 4021.538330, 4363.589844, 4217.948730, 3981.025635, 4134.358887, 450.000000, 8156.000000, 8350.000000, 0.000000, 0.000000, 0.000000, 2.000000, 490.000000, 1557622642.479220, 4.000000, 4.000000, 4.000000, 4.000000, 4.000000
94.000000, 0.000000, 4013.333252, 4358.974121, 4203.589844, 3974.871582, 4145.641113, 450.000000, 8154.000000, 8358.000000, 0.000000, 0.000000, 0.000000, 2.000000, 497.799988, 1557622642.487020, 4.000000, 4.000000, 4.000000, 4.000000, 4.000000
95.000000, 0.000000, 4007.692139, 4341.538574, 4208.205078, 3986.666504, 4153.333008, 16200.000000, 8150.000000, 8364.000000, 0.000000, 0.000000, 0.000000, 2.000000, 505.700012, 1557622642.494920, 4.000000, 4.000000, 4.000000, 4.000000, 4.000000
96.000000, 0.000000, 4021.025635, 4343.076660, 4206.153809, 3998.461426, 4153.846191, 450.000000, 8148.000000, 8355.000000, 0.000000, 0.000000, 0.000000, 2.000000, 513.599976, 1557622642.502820, 4.000000, 4.000000, 4.000000, 4.000000, 4.000000
97.000000, 0.000000, 4029.230713, 4341.538574, 4211.794922, 3993.333252, 4142.051270, 450.000000, 8153.000000, 8359.000000, 0.000000, 0.000000, 0.000000, 2.000000, 521.599976, 1557622642.510820, 4.000000, 4.000000, 4.000000, 4.000000, 4.000000
98.000000, 0.000000, 4020.512695, 4327.692383, 4214.871582, 3983.589600, 4140.000000, 450.000000, 8145.000000, 8363.000000, 0.000000, 0.000000, 0.000000, 2.000000, 529.599976, 1557622642.518820, 4.000000, 4.000000, 4.000000, 4.000000, 4.000000
99.000000, 0.000000, 4018.461426, 4342.563965, 4202.051270, 3985.640869, 4160.000000, 16200.000000, 8143.000000, 8364.000000, 0.000000, 0.000000, 0.000000, 2.000000, 537.500000, 1557622642.526720, 4.000000, 4.000000, 4.000000, 4.000000, 4.000000
100.000000, 0.000000, 4025.128174, 4358.461426, 4210.256348, 3993.333252, 4175.384277, 450.000000, 8146.000000, 8354.000000, 0.000000, 0.000000, 0.000000, 2.000000, 545.399963, 1557622642.534620, 4.000000, 4.000000, 4.000000, 4.000000, 4.000000
101.000000, 0.000000, 4013.845947, 4336.922852, 4206.666504, 3982.563965, 4161.538574, 450.000000, 8149.000000, 8364.000000, 0.000000, 0.000000, 0.000000, 2.000000, 553.399963, 1557622642.542620, 4.000000, 4.000000, 4.000000, 4.000000, 4.000000
102.000000, 0.000000, 4002.563965, 4327.179199, 4207.692383, 3973.845947, 4142.051270, 450.000000, 8146.000000, 8366.000000, 0.000000, 0.000000, 0.000000, 2.000000, 561.200012, 1557622642.550420, 4.000000, 4.000000, 4.000000, 4.000000, 4.000000
103.000000, 0.000000, 4005.640869, 4344.102539, 4218.974121, 3983.589600, 4131.794922, 16200.000000, 8139.000000, 8360.000000, 0.000000, 0.000000, 0.000000, 2.000000, 569.000000, 1557622642.558220, 4.000000, 4.000000, 4.000000, 4.000000, 4.000000
104.000000, 0.000000, 3992.820313, 4334.871582, 4215.384277, 3983.589600, 4124.615234, 450.000000, 8136.000000, 8360.000000, 0.000000, 0.000000, 0.000000, 2.000000, 576.700012, 1557622642.565920, 4.000000, 4.000000, 4.000000, 4.000000, 4.000000
105.000000, 0.000000, 3982.051270, 4316.922852, 4215.897461, 3978.974365, 4133.846191, 450.000000, 8144.000000, 8362.000000, 0.000000, 0.000000, 0.000000, 2.000000, 584.500000, 1557622642.573720, 4.000000, 4.000000, 4.000000, 4.000000, 4.000000
106.000000, 0.000000, 3990.769043, 4325.641113, 4202.051270, 3983.589600, 4141.025391, 450.000000, 8137.000000, 8363.000000, 0.000000, 0.000000, 0.000000, 2.000000, 592.500000, 1557622642.581720, 4.000000, 4.000000, 4.000000, 4.000000, 4.000000
107.000000, 0.000000, 3992.307617, 4331.794922, 4208.205078, 3984.615234, 4135.384277, 16200.000000, 8137.000000, 8367.000000, 0.000000, 0.000000, 0.000000, 2.000000, 600.500000, 1557622642.589720, 4.000000, 4.000000, 4.000000, 4.000000, 4.000000
108.000000, 0.000000, 3988.717773, 4327.179199, 4233.333008, 3984.102539, 4144.102539, 450.000000, 8140.000000, 8367.000000, 0.000000, 0.000000, 0.000000, 2.000000, 608.500000, 1557622642.597720, 4.000000, 4.000000, 4.000000, 4.000000, 4.000000
109.000000, 0.000000, 4004.102539, 4337.948730, 4228.717773, 3991.281982, 4157.948730, 450.000000, 8151.000000, 8358.000000, 0.000000, 0.000000, 0.000000, 2.000000, 616.200012, 1557622642.605420, 4.000000, 4.000000, 4.000000, 4.000000, 4.000000
110.000000, 0.000000, 4020.000000, 4352.820313, 4227.179199, 3997.435791, 4154.358887, 450.000000, 8148.000000, 8359.000000, 0.000000, 0.000000, 0.000000, 2.000000, 624.000000, 1557622642.613220, 4.000000, 4.000000, 4.000000, 4.000000, 4.000000
111.000000, 0.000000, 4012.307617, 4354.358887, 4221.538574, 3997.435791, 4154.871582, 16200.000000, 8150.000000, 8362.000000, 0.000000, 0.000000, 0.000000, 2.000000, 631.799988, 1557622642.621020, 4.000000, 4.000000, 4.000000, 4.000000, 4.000000
112.000000, 0.000000, 4007.692139, 4361.025391, 4214.871582, 3998.974365, 4166.666504, 450.000000, 8154.000000, 8371.000000, 0.000000, 0.000000, 0.000000, 2.000000, 639.599976, 1557622642.628820, 4.000000, 4.000000, 4.000000, 4.000000, 4.000000
113.000000, 0.000000, 4029.230713, 4368.717773, 4220.512695, 4000.000000, 4161.025391, 450.000000, 8162.000000, 8359.000000, 0.000000, 0.000000, 0.000000, 2.000000, 647.500000, 1557622642.636720, 4.000000, 4.000000, 4.000000, 4.000000, 4.000000
114.000000, 0.000000, 4044.102539, 4362.563965, 4212.307617, 3991.281982, 4142.563965, 450.000000, 8159.000000, 8366.000000, 0.000000, 0.000000, 0.000000, 2.000000, 655.500000, 1557622642.644720, 4.000000, 4.000000, 4.000000, 4.000000, 4.000000
115.000000, 0.000000, 4030.256348, 4364.615234, 4212.820313, 3980.000000, 4137.436035, 16200.000000, 8154.000000, 8378.000000, 0.000000, 0.000000, 0.000000, 2.000000, 663.500000, 1557622642.652720, 4.000000, 4.000000, 4.000000, 4.000000, 4.000000
116.000000, 0.000000, 4025.128174, 4380.000000, 4209.743652, 3984.615234, 4140.512695, 450.000000, 8155.000000, 8364.000000, 0.000000, 0.000000, 0.000000, 2.000000, 671.500000, 1557622642.660720, 4.000000, 4.000000, 4.000000, 4.000000, 4.000000
117.000000, 0.000000, 4030.256348, 4369.230469, 4209.743652, 4001.025635, 4143.076660, 450.000000, 8160.000000, 8369.000000, 0.000000, 0.000000, 0.000000, 2.000000, 679.399988, 1557622642.668620, 4.000000, 4.000000, 4.000000, 4.000000, 4.000000
118.000000, 0.000000, 4011.281982, 4349.743652, 4220.512695, 3998.461426, 4147.692383, 450.000000, 8160.000000, 8372.000000, 0.000000, 0.000000, 0.000000, 2.000000, 687.199987, 1557622642.676420, 4.000000, 4.000000, 4.000000, 4.000000, 4.000000
119.000000, 0.000000, 3994.358887, 4366.666504, 4206.153809, 3974.871582, 4134.358887, 16200.000000, 8161.000000, 8375.000000, 0.000000, 0.000000, 0.000000, 2.000000, 694.999989, 1557622642.684220, 4.000000, 4.000000, 4.000000, 4.000000, 4.000000
120.000000, 0.000000, 3987.692139, 4374.871582, 4204.102539, 3958.974365, 4097.436035, 450.000000, 8155.000000, 8383.000000, 0.000000, 0.000000, 0.000000, 2.000000, 702.799988, 1557622642.692020, 4.000000, 4.000000, 4.000000, 4.000000, 4.000000
121.000000, 0.000000, 3964.102539, 4343.589844, 4206.666504, 3955.384521, 4076.923096, 450.000000, 8155.000000, 8380.000000, 0.000000, 0.000000, 0.000000, 2.000000, 710.599987, 1557622642.699820, 4.000000, 4.000000, 4.000000, 4.000000, 4.000000
122.000000, 0.000000, 3952.307617, 4333.333008, 4200.512695, 3964.102539, 4088.205078, 450.000000, 8155.000000, 8369.000000, 0.000000, 0.000000, 0.000000, 2.000000, 718.499989, 1557622642.707720, 4.000000, 4.000000, 4.000000, 4.000000, 4.000000
123.000000, 0.000000, 3970.256348, 4350.769043, 4213.333008, 3990.256348, 4107.179199, 16200.000000, 8152.000000, 8374.000000, 0.000000, 0.000000, 0.000000, 2.000000, 726.499989, 1557622642.715720, 4.000000, 4.000000, 4.000000, 4.000000, 4.000000
124.000000, 0.000000, 3975.897217, 4348.717773, 4222.563965, 4016.923096, 4132.820313, 450.000000, 8145.000000, 8380.000000, 0.000000, 0.000000, 0.000000, 2.000000, 734.499989, 1557622642.723720, 4.000000, 4.000000, 4.000000, 4.000000, 4.000000
125.000000, 0.000000, 3972.307617, 4339.487305, 4225.127930, 4021.025635, 4143.589844, 450.000000, 8143.000000, 8380.000000, 0.000000, 0.000000, 0.000000, 2.000000, 742.199989, 1557622642.731420, 4.000000, 4.000000, 4.000000, 4.000000, 4.000000
126.000000, 0.000000, 3980.512695, 4348.717773, 4206.153809, 4006.153809, 4119.487305, 450.000000, 8149.000000, 8365.000000, 0.000000, 0.000000, 0.000000, 2.000000, 749.999985, 1557622642.739220, 4.000000, 4.000000, 4.000000, 4.000000, 4.000000
127.000000, 0.000000, 3981.025635, 4363.589844, 4194.871582, 3997.948730, 4103.589844, 16200.000000, 8154.000000, 8363.000000, 0.000000, 0.000000, 0.000000, 2.000000, 757.799988, 1557622642.747020, 4.000000, 4.000000, 4.000000, 4.000000, 4.000000
128.000000, 0.000000, 3982.563965, 4380.000000, 4217.948730, 3997.435791, 4125.641113, 500.000000, 8152.000000, 8378.000000, 0.000000, 0.000000, 0.000000, 2.000000, 765.799988, 1557622642.755020, 4.000000, 4.000000, 4.000000, 4.000000, 4.000000
0.000000, 0.000000, 3989.743408, 4383.076660, 4211.794922, 3993.333252, 4147.692383, 500.000000, 8158.000000, 8367.000000, 0.000000, 0.000000, 0.000000, 2.000000, 773.499985, 1557622642.762720, 4.000000, 4.000000, 4.000000, 4.000000, 4.000000
1.000000, 0.000000, 3989.230713, 4365.641113, 4201.538574, 3996.410156, 4145.127930, 500.000000, 8154.000000, 8354.000000, 0.000000, 0.000000, 0.000000, 2.000000, 781.499985, 1557622642.770720, 4.000000, 4.000000, 4.000000, 4.000000, 4.000000
2.000000, 0.000000, 3996.410156, 4368.717773, 4205.127930, 4003.589600, 4137.436035, 16187.000000, 8156.000000, 8359.000000, 0.000000, 0.000000, 0.000000, 2.000000, 789.499985, 1557622642.778720, 4.000000, 4.000000, 4.000000, 4.000000, 4.000000
3.000000, 0.000000, 3996.923096, 4374.358887, 4193.846191, 3998.974365, 4134.358887, 500.000000, 8157.000000, 8358.000000, 0.000000, 0.000000, 0.000000, 2.000000, 797.499985, 1557622642.786720, 4.000000, 4.000000, 4.000000, 4.000000, 4.000000
4.000000, 0.000000, 3987.692139, 4362.563965, 4202.563965, 3989.230713, 4127.179199, 16164.000000, 8158.000000, 8352.000000, 0.000000, 0.000000, 0.000000, 2.000000, 805.299988, 1557622642.794520, 4.000000, 4.000000, 4.000000, 4.000000, 4.000000
5.000000, 0.000000, 3985.640869, 4372.307617, 4212.307617, 3985.128174, 4119.487305, 500.000000, 8159.000000, 8363.000000, 0.000000, 0.000000, 0.000000, 2.000000, 812.999985, 1557622642.802220, 4.000000, 4.000000, 4.000000, 4.000000, 4.000000
6.000000, 0.000000, 3972.820313, 4380.512695, 4218.974121, 3987.179443, 4116.410156, 16183.000000, 8161.000000, 8355.000000, 0.000000, 0.000000, 0.000000, 2.000000, 820.799988, 1557622642.810020, 4.000000, 4.000000, 4.000000, 4.000000, 4.000000
7.000000, 0.000000, 3958.461426, 4363.076660, 4220.000000, 3989.230713, 4108.717773, 500.000000, 8166.000000, 8352.000000, 0.000000, 0.000000, 0.000000, 2.000000, 828.699982, 1557622642.817920, 4.000000, 4.000000, 4.000000, 4.000000, 4.000000
8.000000, 0.000000, 3980.000000, 4376.410156, 4206.153809, 3986.153809, 4101.025391, 500.000000, 8157.000000, 8365.000000, 0.000000, 0.000000, 0.000000, 2.000000, 836.599991, 1557622642.825820, 4.000000, 4.000000, 4.000000, 4.000000, 4.000000
9.000000, 0.000000, 3992.820313, 4405.127930, 4207.692383, 3987.692139, 4104.615234, 291.000000, 8152.000000, 8371.000000, 0.000000, 0.000000, 0.000000, 2.000000, 844.499985, 1557622642.833720, 4.000000, 4.000000, 4.000000, 4.000000, 4.000000
10.000000, 0.000000, 3963.076904, 4392.307617, 4198.461426, 3989.743408, 4110.256348, 500.000000, 8152.000000, 8361.000000, 0.000000, 0.000000, 0.000000, 2.000000, 852.499985, 1557622642.841720, 4.000000, 4.000000, 4.000000, 4.000000, 4.000000
11.000000, 0.000000, 3952.307617, 4373.846191, 4202.051270, 3986.153809, 4106.666504, 16198.000000, 8159.000000, 8362.000000, 0.000000, 0.000000, 0.000000, 2.000000, 860.499985, 1557622642.849720, 4.000000, 4.000000, 4.000000, 4.000000, 4.000000
12.000000, 0.000000, 3965.128174, 4377.948730, 4215.384277, 3981.538330, 4094.871582, 500.000000, 8161.000000, 8370.000000, 0.000000, 0.000000, 0.000000, 2.000000, 868.499985, 1557622642.857720, 4.000000, 4.000000, 4.000000, 4.000000, 4.000000
13.000000, 0.000000, 3968.717773, 4385.641113, 4208.717773, 3976.923096, 4089.230713, 500.000000, 8152.000000, 8374.000000, 0.000000, 0.000000, 0.000000, 2.000000, 876.199982, 1557622642.865420, 4.000000, 4.000000, 4.000000, 4.000000, 4.000000
14.000000, 0.000000, 3976.410156, 4387.179199, 4218.461426, 3978.974365, 4098.974121, 450.000000, 8151.000000, 8367.000000, 0.000000, 0.000000, 0.000000, 2.000000, 883.999985, 1557622642.873220, 4.000000, 4.000000, 4.000000, 4.000000, 4.000000
15.000000, 0.000000, 3985.640869, 4378.461426, 4216.922852, 3983.076904, 4116.410156, 16198.000000, 8147.000000, 8364.000000, 0.000000, 0.000000, 0.000000, 2.000000, 891.799988, 1557622642.881020, 4.000000, 4.000000, 4.000000, 4.000000, 4.000000
16.000000, 0.000000, 3988.717773, 4377.948730, 4211.281738, 3980.000000, 4128.205078, 0.000000, 8139.000000, 8370.000000, 0.000000, 0.000000, 0.000000, 2.000000, 899.599991, 1557622642.888820, 4.000000, 4.000000, 4.000000, 4.000000, 4.000000
17.000000, 0.000000, 3975.897217, 4380.512695, 4227.692383, 3973.333252, 4123.076660, 0.000000, 8143.000000, 8375.000000, 0.000000, 0.000000, 0.000000, 2.000000, 907.399994, 1557622642.896620, 4.000000, 4.000000, 4.000000, 4.000000, 4.000000
18.000000, 0.000000, 3949.230713, 4360.512695, 4232.307617, 3971.281982, 4109.230469, 0.000000, 8141.000000, 8371.000000, 0.000000, 0.000000, 0.000000, 2.000000, 915.399994, 1557622642.904620, 4.000000, 4.000000, 4.000000, 4.000000, 4.000000
19.000000, 0.000000, 3956.923096, 4350.256348, 4226.153809, 3977.435791, 4102.563965, 0.000000, 8147.000000, 8369.000000, 0.000000, 0.000000, 0.000000, 2.000000, 923.399994, 1557622642.912620, 4.000000, 4.000000, 4.000000, 4.000000, 4.000000
20.000000, 0.000000, 3994.871582, 4370.769043, 4208.205078, 3974.358887, 4107.179199, 0.000000, 8148.000000, 8365.000000, 0.000000, 0.000000, 0.000000, 2.000000, 931.399994, 1557622642.920620, 4.000000, 4.000000, 4.000000, 4.000000, 4.000000
21.000000, 0.000000, 4010.256348, 4387.692383, 4203.589844, 3974.358887, 4113.333008, 0.000000, 8147.000000, 8376.000000, 0.000000, 0.000000, 0.000000, 2.000000, 939.299988, 1557622642.928520, 4.000000, 4.000000, 4.000000, 4.000000, 4.000000
22.000000, 0.000000, 4008.717773, 4393.846191, 4210.256348, 3984.102539, 4114.358887, 0.000000, 8143.000000, 8376.000000, 0.000000, 0.000000, 0.000000, 2.000000, 947.099976, 1557622642.936320, 4.000000, 4.000000, 4.000000, 4.000000, 4.000000
23.000000, 0.000000, 4008.205078, 4393.333008, 4202.051270, 3983.589600, 4124.615234, 0.000000, 8145.000000, 8364.000000, 0.000000, 0.000000, 0.000000, 2.000000, 954.899994, 1557622642.944120, 4.000000, 4.000000, 4.000000, 4.000000, 4.000000
24.000000, 0.000000, 4001.025635, 4385.641113, 4216.410156, 3979.487061, 4150.769043, 0.000000, 8140.000000, 8361.000000, 0.000000, 0.000000, 0.000000, 2.000000, 962.699982, 1557622642.951920, 4.000000, 4.000000, 4.000000, 4.000000, 4.000000
25.000000, 0.000000, 4008.717773, 4389.743652, 4220.000000, 3989.743408, 4158.461426, 0.000000, 8140.000000, 8372.000000, 0.000000, 0.000000, 0.000000, 2.000000, 970.699982, 1557622642.959920, 4.000000, 4.000000, 4.000000, 4.000000, 4.000000
26.000000, 0.000000, 4023.589600, 4401.025391, 4211.794922, 4001.025635, 4153.333008, 0.000000, 8141.000000, 8365.000000, 0.000000, 0.000000, 0.000000, 2.000000, 978.500000, 1557622642.967720, 4.000000, 4.000000, 4.000000, 4.000000, 4.000000
27.000000, 0.000000, 4012.307617, 4391.794922, 4224.615234, 4000.512695, 4161.025391, 0.000000, 8147.000000, 8351.000000, 0.000000, 0.000000, 0.000000, 2.000000, 986.500000, 1557622642.975720, 4.000000, 4.000000, 4.000000, 4.000000, 4.000000
28.000000, 0.000000, 3997.948730, 4369.743652, 4219.487305, 3994.871582, 4159.487305, 0.000000, 8151.000000, 8356.000000, 0.000000, 0.000000, 0.000000, 2.000000, 994.500000, 1557622642.983720, 4.000000, 4.000000, 4.000000, 4.000000, 4.000000
29.000000, 0.000000, 4002.563965, 4360.000000, 4223.589844, 3995.384521, 4138.461426, 0.000000, 8149.000000, 8362.000000, 0.000000, 0.000000, 0.000000, 3.000000, 2.500000, 1557622642.991720, 4.000000, 4.000000, 4.000000, 4.000000, 4.000000
30.000000, 0.000000, 4001.025635, 4367.179199, 4230.769043, 3995.897217, 4141.538574, 0.000000, 8151.000000, 8359.000000, 0.000000, 0.000000, 0.000000, 3.000000, 10.199982, 1557622642.999420, 4.000000, 4.000000, 4.000000, 4.000000, 4.000000
31.000000, 0.000000, 3991.794678, 4372.307617, 4218.461426, 3995.384521, 4155.897461, 0.000000, 8150.000000, 8354.000000, 0.000000, 0.000000, 0.000000, 3.000000, 18.000000, 1557622643.007220, 4.000000, 4.000000, 4.000000, 4.000000, 4.000000
32.000000, 0.000000, 3991.794678, 4371.794922, 4221.538574, 3994.358887, 4152.307617, 0.000000, 8153.000000, 8355.000000, 0.000000, 0.000000, 0.000000, 3.000000, 25.799988, 1557622643.015020, 4.000000, 4.000000, 4.000000, 4.000000, 4.000000
33.000000, 0.000000, 3987.692139, 4370.769043, 4215.897461, 3993.333252, 4152.307617, 0.000000, 8151.000000, 8358.000000, 0.000000, 0.000000, 0.000000, 3.000000, 33.699982, 1557622643.022920, 4.000000, 4.000000, 4.000000, 4.000000, 4.000000
34.000000, 0.000000, 3981.538330, 4366.666504, 4207.179199, 3992.307617, 4151.281738, 0.000000, 8148.000000, 8362.000000, 0.000000, 0.000000, 0.000000, 3.000000, 41.500000, 1557622643.030720, 4.000000, 4.000000, 4.000000, 4.000000, 4.000000
35.000000, 0.000000, 3991.281982, 4367.179199, 4206.666504, 3984.615234, 4140.512695, 0.000000, 8155.000000, 8368.000000, 0.000000, 0.000000, 0.000000, 3.000000, 49.500000, 1557622643.038720, 4.000000, 4.000000, 4.000000, 4.000000, 4.000000
36.000000, 0.000000, 3997.948730, 4373.333008, 4213.846191, 3977.948730, 4142.051270, 0.000000, 8150.000000, 8355.000000, 0.000000, 0.000000, 0.000000, 3.000000, 57.500000, 1557622643.046720, 4.000000, 4.000000, 4.000000, 4.000000, 4.000000
37.000000, 0.000000, 3988.717773, 4374.358887, 4228.717773, 3983.076904, 4160.000000, 0.000000, 8147.000000, 8355.000000, 0.000000, 0.000000, 0.000000, 3.000000, 65.500000, 1557622643.054720, 4.000000, 4.000000, 4.000000, 4.000000, 4.000000
38.000000, 0.000000, 3993.845947, 4370.256348, 4211.281738, 3988.717773, 4158.974121, 0.000000, 8143.000000, 8367.000000, 0.000000, 0.000000, 0.000000, 3.000000, 73.199982, 1557622643.062420, 4.000000, 4.000000, 4.000000, 4.000000, 4.000000
39.000000, 0.000000, 4002.051270, 4366.153809, 4206.153809, 3981.538330, 4137.436035, 0.000000, 8145.000000, 8372.000000, 0.000000, 0.000000, 0.000000, 3.000000, 81.000000, 1557622643.070220, 4.000000, 4.000000, 4.000000, 4.000000, 4.000000
40.000000, 0.000000, 3994.358887, 4371.794922, 4223.076660, 3983.589600, 4143.076660, 0.000000, 8142.000000, 8366.000000, 0.000000, 0.000000, 0.000000, 3.000000, 88.799988, 1557622643.078020, 4.000000, 4.000000, 4.000000, 4.000000, 4.000000
41.000000, 0.000000, 3989.230713, 4372.307617, 4217.436035, 4006.153809, 4163.076660, 0.000000, 8147.000000, 8371.000000, 0.000000, 0.000000, 0.000000, 3.000000, 96.799988, 1557622643.086020, 4.000000, 4.000000, 4.000000, 4.000000, 4.000000
42.000000, 0.000000, 3983.589600, 4350.769043, 4217.436035, 4013.845947, 4157.948730, 0.000000, 8142.000000, 8376.000000, 0.000000, 0.000000, 0.000000, 3.000000, 104.500000, 1557622643.093720, 4.000000, 4.000000, 4.000000, 4.000000, 4.000000
43.000000, 0.000000, 3975.384521, 4338.974121, 4213.846191, 3997.948730, 4134.358887, 0.000000, 8139.000000, 8375.000000, 0.000000, 0.000000, 0.000000, 3.000000, 112.500000, 1557622643.101720, 4.000000, 4.000000, 4.000000, 4.000000, 4.000000
44.000000, 0.000000, 3977.948730, 4353.333008, 4212.820313, 3990.256348, 4124.615234, 0.000000, 8136.000000, 8368.000000, 0.000000, 0.000000, 0.000000, 3.000000, 120.500000, 1557622643.109720, 4.000000, 4.000000, 4.000000, 4.000000, 4.000000
45.000000, 0.000000, 3991.281982, 4359.487305, 4211.794922, 3997.948730, 4136.410156, 0.000000, 8137.000000, 8374.000000, 0.000000, 0.000000, 0.000000, 3.000000, 128.500000, 1557622643.117720, 4.000000, 4.000000, 4.000000, 4.000000, 4.000000
46.000000, 0.000000, 3996.410156, 4356.410156, 4204.615234, 4001.538330, 4142.051270, 0.000000, 8140.000000, 8371.000000, 0.000000, 0.000000, 0.000000, 3.000000, 136.199982, 1557622643.125420, 4.000000, 4.000000, 4.000000, 4.000000, 4.000000
47.000000, 0.000000, 3992.307617, 4362.051270, 4219.487305, 3995.897217, 4143.589844, 0.000000, 8143.000000, 8369.000000, 0.000000, 0.000000, 0.000000, 3.000000, 144.000000, 1557622643.133220, 4.000000, 4.000000, 4.000000, 4.000000, 4.000000
48.000000, 0.000000, 4002.051270, 4375.384277, 4213.333008, 3991.281982, 4160.512695, 0.000000, 8140.000000, 8370.000000, 0.000000, 0.000000, 0.000000, 3.000000, 151.799988, 1557622643.141020, 4.000000, 4.000000, 4.000000, 4.000000, 4.000000
49.000000, 0.000000, 4022.563965, 4380.512695, 4201.538574, 4002.563965, 4166.666504, 0.000000, 8149.000000, 8362.000000, 0.000000, 0.000000, 0.000000, 3.000000, 159.599976, 1557622643.148820, 4.000000, 4.000000, 4.000000, 4.000000, 4.000000
50.000000, 0.000000, 4030.769043, 4375.897461, 4207.179199, 4013.333252, 4155.384277, 0.000000, 8148.000000, 8365.000000, 0.000000, 0.000000, 0.000000, 3.000000, 167.599976, 1557622643.156820, 4.000000, 4.000000, 4.000000, 4.000000, 4.000000
51.000000, 0.000000, 4028.205078, 4380.512695, 4205.641113, 3999.487061, 4162.051270, 0.000000, 8145.000000, 8370.000000, 0.000000, 0.000000, 0.000000, 3.000000, 175.500000, 1557622643.164720, 4.000000, 4.000000, 4.000000, 4.000000, 4.000000
52.000000, 0.000000, 4021.025635, 4389.230469, 4225.127930, 3992.820313, 4167.692383, 0.000000, 8152.000000, 8369.000000, 0.000000, 0.000000, 0.000000, 3.000000, 183.500000, 1557622643.172720, 4.000000, 4.000000, 4.000000, 4.000000, 4.000000
53.000000, 0.000000, 4003.589600, 4384.102539, 4227.692383, 4009.230713, 4150.769043, 0.000000, 8150.000000, 8354.000000, 0.000000, 0.000000, 0.000000, 3.000000, 191.500000, 1557622643.180720, 4.000000, 4.000000, 4.000000, 4.000000, 4.000000
54.000000, 0.000000, 3997.948730, 4379.487305, 4214.358887, 4017.948730, 4158.974121, 0.000000, 8138.000000, 8362.000000, 0.000000, 0.000000, 0.000000, 3.000000, 199.500000, 1557622643.188720, 4.000000, 4.000000, 4.000000, 4.000000, 4.000000
55.000000, 0.000000, 4023.076904, 4381.025391, 4218.461426, 4008.717773, 4172.820313, 0.000000, 8145.000000, 8370.000000, 0.000000, 0.000000, 0.000000, 3.000000, 207.200012, 1557622643.196420, 4.000000, 4.000000, 4.000000, 4.000000, 4.000000
56.000000, 0.000000, 4035.384521, 4366.153809, 4221.025391, 4006.153809, 4168.205078, 0.000000, 8149.000000, 8369.000000, 0.000000, 0.000000, 0.000000, 3.000000, 215.000000, 1557622643.204220, 4.000000, 4.000000, 4.000000, 4.000000, 4.000000
57.000000, 0.000000, 4024.615234, 4356.922852, 4228.205078, 4012.820313, 4180.512695, 0.000000, 8143.000000, 8360.000000, 0.000000, 0.000000, 0.000000, 3.000000, 222.799988, 1557622643.212020, 4.000000, 4.000000, 4.000000, 4.000000, 4.000000
58.000000, 0.000000, 4012.307617, 4360.000000, 4220.000000, 4005.128174, 4186.666504, 0.000000, 8149.000000, 8361.000000, 0.000000, 0.000000, 0.000000, 3.000000, 230.599976, 1557622643.219820, 4.000000, 4.000000, 4.000000, 4.000000, 4.000000
59.000000, 0.000000, 4012.307617, 4354.358887, 4214.358887, 3999.487061, 4175.384277, 0.000000, 8152.000000, 8360.000000, 0.000000, 0.000000, 0.000000, 3.000000, 238.500000, 1557622643.227720, 4.000000, 4.000000, 4.000000, 4.000000, 4.000000
60.000000, 0.000000, 4028.717773, 4363.589844, 4215.897461, 4017.435791, 4177.436035, 0.000000, 8149.000000, 8357.000000, 0.000000, 0.000000, 0.000000, 3.000000, 246.500000, 1557622643.235720, 4.000000, 4.000000, 4.000000, 4.000000, 4.000000
61.000000, 0.000000, 4028.717773, 4385.641113, 4203.076660, 4026.153809, 4186.666504, 0.000000, 8141.000000, 8359.000000, 0.000000, 0.000000, 0.000000, 3.000000, 254.500000, 1557622643.243720, 4.000000, 4.000000, 4.000000, 4.000000, 4.000000
62.000000, 0.000000, 4007.692139, 4381.025391, 4216.922852, 4014.358887, 4184.615234, 0.000000, 8140.000000, 8357.000000, 0.000000, 0.000000, 0.000000, 3.000000, 262.500000, 1557622643.251720, 4.000000, 4.000000, 4.000000, 4.000000, 4.000000
63.000000, 0.000000, 4001.538330, 4363.076660, 4218.974121, 4009.230713, 4172.307617, 0.000000, 8141.000000, 8358.000000, 0.000000, 0.000000, 0.000000, 3.000000, 270.399963, 1557622643.259620, 4.000000, 4.000000, 4.000000, 4.000000, 4.000000
64.000000, 0.000000, 4007.179443, 4372.307617, 4204.615234, 4012.307617, 4163.589844, 500.000000, 8142.000000, 8365.000000, 0.000000, 0.000000, 0.000000, 3.000000, 278.200012, 1557622643.267420, 4.000000, 4.000000, 4.000000, 4.000000, 4.000000
65.000000, 0.000000, 4010.769043, 4394.871582, 4222.563965, 4012.820313, 4180.512695, 500.000000, 8135.000000, 8362.000000, 0.000000, 0.000000, 0.000000, 3.000000, 286.000000, 1557622643.275220, 4.000000, 4.000000, 4.000000, 4.000000, 4.000000
66.000000, 0.000000, 4018.974365, 4399.487305, 4218.974121, 4017.948730, 4201.538574, 16196.000000, 8142.000000, 8353.000000, 0.000000, 0.000000, 0.000000, 3.000000, 293.799988, 1557622643.283020, 4.000000, 4.000000, 4.000000, 4.000000, 4.000000
67.000000, 0.000000, 4032.307617, 4394.358887, 4205.641113, 4025.128174, 4199.487305, 500.000000, 8144.000000, 8357.000000, 0.000000, 0.000000, 0.000000, 3.000000, 301.700012, 1557622643.290920, 4.000000, 4.000000, 4.000000, 4.000000, 4.000000
68.000000, 0.000000, 4035.384521, 4396.922852, 4211.794922, 4026.153809, 4193.333008, 16190.000000, 8136.000000, 8365.000000, 0.000000, 0.000000, 0.000000, 3.000000, 309.700012, 1557622643.298920, 4.000000, 4.000000, 4.000000, 4.000000, 4.000000
69.000000, 0.000000, 4035.384521, 4398.974121, 4212.307617, 4027.692139, 4192.820313, 500.000000, 8140.000000, 8371.000000, 0.000000, 0.000000, 0.000000, 3.000000, 317.500000, 1557622643.306720, 4.000000, 4.000000, 4.000000, 4.000000, 4.000000
70.000000, 0.000000, 4036.410156, 4391.794922, 4212.820313, 4034.871582, 4201.538574, 16178.000000, 8139.000000, 8360.000000, 0.000000, 0.000000, 0.000000, 3.000000, 325.500000, 1557622643.314720, 4.000000, 4.000000, 4.000000, 4.000000, 4.000000
71.000000, 0.000000, 4046.666504, 4402.051270, 4208.205078, 4041.025635, 4218.974121, 500.000000, 8141.000000, 8361.000000, 0.000000, 0.000000, 0.000000, 3.000000, 333.500000, 1557622643.322720, 4.000000, 4.000000, 4.000000, 4.000000, 4.000000
72.000000, 0.000000, 4051.794678, 4416.922852, 4214.358887, 4043.589600, 4220.000000, 500.000000, 8140.000000, 8360.000000, 0.000000, 0.000000, 0.000000, 3.000000, 341.200012, 1557622643.330420, 4.000000, 4.000000, 4.000000, 4.000000, 4.000000
73.000000, 0.000000, 4033.333252, 4396.922852, 4220.000000, 4043.076904, 4208.717773, 299.000000, 8142.000000, 8358.000000, 0.000000, 0.000000, 0.000000, 3.000000, 349.000000, 1557622643.338220, 4.000000, 4.000000, 4.000000, 4.000000, 4.000000
74.000000, 0.000000, 4017.435791, 4374.871582, 4222.563965, 4036.410156, 4216.922852, 500.000000, 8139.000000, 8362.000000, 0.000000, 0.000000, 0.000000, 3.000000, 356.799988, 1557622643.346020, 4.000000, 4.000000, 4.000000, 4.000000, 4.000000
75.000000, 0.000000, 4029.230713, 4392.820313, 4232.820313, 4026.666504, 4224.102539, 16179.000000, 8141.000000, 8367.000000, 0.000000, 0.000000, 0.000000, 3.000000, 364.799988, 1557622643.354020, 4.000000, 4.000000, 4.000000, 4.000000, 4.000000
76.000000, 0.000000, 4048.205078, 4421.025391, 4213.333008, 4016.410156, 4210.256348, 500.000000, 8143.000000, 8354.000000, 0.000000, 0.000000, 0.000000, 3.000000, 372.700012, 1557622643.361920, 4.000000, 4.000000, 4.000000, 4.000000, 4.000000
77.000000, 0.000000, 4051.281982, 4424.102539, 4216.922852, 4014.871582, 4207.692383, 500.000000, 8143.000000, 8360.000000, 0.000000, 0.000000, 0.000000, 3.000000, 380.700012, 1557622643.369920, 4.000000, 4.000000, 4.000000, 4.000000, 4.000000
78.000000, 0.000000, 4043.076904, 4415.897461, 4235.384277, 4013.845947, 4217.436035, 450.000000, 8147.000000, 8369.000000, 0.000000, 0.000000, 0.000000, 3.000000, 388.700012, 1557622643.377920, 4.000000, 4.000000, 4.000000, 4.000000, 4.000000
79.000000, 0.000000, 4029.230713, 4413.846191, 4214.358887, 4005.128174, 4207.692383, 16179.000000, 8145.000000, 8361.000000, 0.000000, 0.000000, 0.000000, 3.000000, 396.599976, 1557622643.385820, 4.000000, 4.000000, 4.000000, 4.000000, 4.000000
80.000000, 0.000000, 4022.563965, 4417.435547, 4214.358887, 4011.794678, 4196.922852, 450.000000, 8148.000000, 8352.000000, 0.000000, 0.000000, 0.000000, 3.000000, 404.299988, 1557622643.393520, 4.000000, 4.000000, 4.000000, 4.000000, 4.000000
81.000000, 0.000000, 4033.845947, 4413.333008, 4218.974121, 4030.769043, 4204.102539, 450.000000, 8148.000000, 8365.000000, 0.000000, 0.000000, 0.000000, 3.000000, 412.099976, 1557622643.401320, 4.000000, 4.000000, 4.000000, 4.000000, 4.000000
82.000000, 0.000000, 4043.076904, 4410.256348, 4210.769043, 4028.205078, 4195.384277, 450.000000, 8141.000000, 8364.000000, 0.000000, 0.000000, 0.000000, 3.000000, 419.899963, 1557622643.409120, 4.000000, 4.000000, 4.000000, 4.000000, 4.000000
83.000000, 0.000000, 4038.461426, 4419.487305, 4221.538574, 4015.384521, 4183.076660, 16179.000000, 8142.000000, 8354.000000, 0.000000, 0.000000, 0.000000, 3.000000, 427.700012, 1557622643.416920, 4.000000, 4.000000, 4.000000, 4.000000, 4.000000
84.000000, 0.000000, 4029.230713, 4412.820313, 4227.179199, 4016.410156, 4198.461426, 450.000000, 8143.000000, 8362.000000, 0.000000, 0.000000, 0.000000, 3.000000, 435.399963, 1557622643.424620, 4.000000, 4.000000, 4.000000, 4.000000, 4.000000
85.000000, 0.000000, 4024.615234, 4398.974121, 4215.384277, 4016.923096, 4205.127930, 450.000000, 8149.000000, 8366.000000, 0.000000, 0.000000, 0.000000, 3.000000, 443.399963, 1557622643.432620, 4.000000, 4.000000, 4.000000, 4.000000, 4.000000
86.000000, 0.000000, 4027.179443, 4412.307617, 4189.743652, 4008.717773, 4187.692383, 450.000000, 8148.000000, 8361.000000, 0.000000, 0.000000, 0.000000, 3.000000, 451.399963, 1557622643.440620, 4.000000, 4.000000, 4.000000, 4.000000, 4.000000
87.000000, 0.000000, 4031.794678, 4414.358887, 4191.794922, 4013.333252, 4177.436035, 16179.000000, 8142.000000, 8367.000000, 0.000000, 0.000000, 0.000000, 3.000000, 459.399963, 1557622643.448620, 4.000000, 4.000000, 4.000000, 4.000000, 4.000000
88.000000, 0.000000, 4014.358887, 4390.256348, 4207.179199, 4018.461426, 4174.871582, 450.000000, 8139.000000, 8375.000000, 0.000000, 0.000000, 0.000000, 3.000000, 467.099976, 1557622643.456320, 4.000000, 4.000000, 4.000000, 4.000000, 4.000000
89.000000, 0.000000, 3980.000000, 4389.230469, 4194.871582, 4006.666504, 4156.410156, 450.000000, 8138.000000, 8364.000000, 0.000000, 0.000000, 0.000000, 3.000000, 474.899963, 1557622643.464120, 4.000000, 4.000000, 4.000000, 4.000000, 4.000000
90.000000, 0.000000, 3984.615234, 4411.281738, 4202.051270, 4008.205078, 4141.025391, 450.000000, 8140.000000, 8366.000000, 0.000000, 0.000000, 0.000000, 3.000000, 482.700012, 1557622643.471920, 4.000000, 4.000000, 4.000000, 4.000000, 4.000000
91.000000, 0.000000, 4011.281982, 4424.102539, 4218.461426, 4030.256348, 4176.410156, 16179.000000, 8137.000000, 8374.000000, 0.000000, 0.000000, 0.000000, 3.000000, 490.700012, 1557622643.479920, 4.000000, 4.000000, 4.000000, 4.000000, 4.000000
92.000000, 0.000000, 4016.410156, 4428.205078, 4230.769043, 4043.076904, 4216.410156, 450.000000, 8146.000000, 8364.000000, 0.000000, 0.000000, 0.000000, 3.000000, 498.599976, 1557622643.487820, 4.000000, 4.000000, 4.000000, 4.000000, 4.000000
93.000000, 0.000000, 4018.974365, 4423.589844, 4230.769043, 4037.948730, 4191.281738, 450.000000, 8137.000000, 8364.000000, 0.000000, 0.000000, 0.000000, 3.000000, 506.399963, 1557622643.495620, 4.000000, 4.000000, 4.000000, 4.000000, 4.000000
94.000000, 0.000000, 4018.974365, 4409.230469, 4211.281738, 4026.666504, 4164.615234, 450.000000, 8140.000000, 8371.000000, 0.000000, 0.000000, 0.000000, 3.000000, 514.399963, 1557622643.503620, 4.000000, 4.000000, 4.000000, 4.000000, 4.000000
95.000000, 0.000000, 4009.230713, 4404.615234, 4220.000000, 4025.640869, 4183.589844, 16179.000000, 8147.000000, 8365.000000, 0.000000, 0.000000, 0.000000, 3.000000, 522.399963, 1557622643.511620, 4.000000, 4.000000, 4.000000, 4.000000, 4.000000
96.000000, 0.000000, 4012.820313, 4402.051270, 4218.461426, 4032.307617, 4182.563965, 450.000000, 8149.000000, 8356.000000, 0.000000, 0.000000, 0.000000, 3.000000, 530.399963, 1557622643.519620, 4.000000, 4.000000, 4.000000, 4.000000, 4.000000
97.000000, 0.000000, 4021.025635, 4396.410156, 4200.512695, 4033.845947, 4161.538574, 450.000000, 8149.000000, 8357.000000, 0.000000, 0.000000, 0.000000, 3.000000, 538.099976, 1557622643.527320, 4.000000, 4.000000, 4.000000, 4.000000, 4.000000
98.000000, 0.000000, 4003.589600, 4396.922852, 4210.769043, 4030.769043, 4176.410156, 450.000000, 8149.000000, 8358.000000, 0.000000, 0.000000, 0.000000, 3.000000, 545.899963, 1557622643.535120, 4.000000, 4.000000, 4.000000, 4.000000, 4.000000
99.000000, 0.000000, 4001.538330, 4402.051270, 4217.436035, 4032.820313, 4202.051270, 16179.000000, 8157.000000, 8361.000000, 0.000000, 0.000000, 0.000000, 3.000000, 553.700012, 1557622643.542920, 4.000000, 4.000000, 4.000000, 4.000000, 4.000000
100.000000, 0.000000, 4039.487061, 4408.205078, 4223.076660, 4042.051270, 4200.512695, 450.000000, 8156.000000, 8363.000000, 0.000000, 0.000000, 0.000000, 3.000000, 561.700012, 1557622643.550920, 4.000000, 4.000000, 4.000000, 4.000000, 4.000000
101.000000, 0.000000, 4054.871582, 4410.769043, 4220.000000, 4042.051270, 4188.205078, 450.000000, 8147.000000, 8364.000000, 0.000000, 0.000000, 0.000000, 3.000000, 569.500000, 1557622643.558720, 4.000000, 4.000000, 4.000000, 4.000000, 4.000000
102.000000, 0.000000, 4024.615234, 4417.435547, 4215.384277, 4030.256348, 4187.179199, 450.000000, 8158.000000, 8364.000000, 0.000000, 0.000000, 0.000000, 3.000000, 577.500000, 1557622643.566720, 4.000000, 4.000000, 4.000000, 4.000000, 4.000000
103.000000, 0.000000, 4006.153809, 4418.974121, 4227.179199, 4015.897217, 4186.666504, 16179.000000, 8155.000000, 8364.000000, 0.000000, 0.000000, 0.000000, 3.000000, 585.500000, 1557622643.574720, 4.000000, 4.000000, 4.000000, 4.000000, 4.000000
104.000000, 0.000000, 4021.025635, 4410.769043, 4211.794922, 4006.666504, 4172.307617, 450.000000, 8148.000000, 8371.000000, 0.000000, 0.000000, 0.000000, 3.000000, 593.500000, 1557622643.582720, 4.000000, 4.000000, 4.000000, 4.000000, 4.000000
105.000000, 0.000000, 4036.923096, 4421.538574, 4204.615234, 4017.435791, 4166.666504, 450.000000, 8150.000000, 8372.000000, 0.000000, 0.000000, 0.000000, 3.000000, 601.200012, 1557622643.590420, 4.000000, 4.000000, 4.000000, 4.000000, 4.000000
106.000000, 0.000000, 4027.692139, 4431.794922, 4214.871582, 4026.153809, 4176.922852, 450.000000, 8153.000000, 8367.000000, 0.000000, 0.000000, 0.000000, 3.000000, 609.000000, 1557622643.598220, 4.000000, 4.000000, 4.000000, 4.000000, 4.000000
107.000000, 0.000000, 4002.051270, 4412.820313, 4211.281738, 4015.897217, 4170.256348, 16179.000000, 8147.000000, 8377.000000, 0.000000, 0.000000, 0.000000, 3.000000, 616.799988, 1557622643.606020, 4.000000, 4.000000, 4.000000, 4.000000, 4.000000
108.000000, 0.000000, 3990.769043, 4402.563965, 4214.358887, 4012.820313, 4156.922852, 450.000000, 8149.000000, 8371.000000, 0.000000, 0.000000, 0.000000, 3.000000, 624.799988, 1557622643.614020, 4.000000, 4.000000, 4.000000, 4.000000, 4.000000
109.000000, 0.000000, 3989.743408, 4412.307617, 4206.153809, 4018.461426, 4154.871582, 450.000000, 8150.000000, 8360.000000, 0.000000, 0.000000, 0.000000, 3.000000, 632.500000, 1557622643.621720, 4.000000, 4.000000, 4.000000, 4.000000, 4.000000
110.000000, 0.000000, 3975.897217, 4396.922852, 4210.256348, 4017.948730, 4144.615234, 450.000000, 8148.000000, 8358.000000, 0.000000, 0.000000, 0.000000, 3.000000, 640.500000, 1557622643.629720, 4.000000, 4.000000, 4.000000, 4.000000, 4.000000
111.000000, 0.000000, 3976.923096, 4378.461426, 4226.666504, 4021.025635, 4135.384277, 16179.000000, 8148.000000, 8365.000000, 0.000000, 0.000000, 0.000000, 3.000000, 648.500000, 1557622643.637720, 4.000000, 4.000000, 4.000000, 4.000000, 4.000000
112.000000, 0.000000, 3994.358887, 4385.641113, 4217.436035, 4023.076904, 4149.230469, 450.000000, 8151.000000, 8358.000000, 0.000000, 0.000000, 0.000000, 3.000000, 656.500000, 1557622643.645720, 4.000000, 4.000000, 4.000000, 4.000000, 4.000000
113.000000, 0.000000, 3989.743408, 4388.205078, 4215.384277, 4003.076904, 4162.051270, 450.000000, 8151.000000, 8352.000000, 0.000000, 0.000000, 0.000000, 3.000000, 664.200012, 1557622643.653420, 4.000000, 4.000000, 4.000000, 4.000000, 4.000000
114.000000, 0.000000, 3988.205078, 4389.743652, 4212.307617, 3981.538330, 4148.205078, 450.000000, 8146.000000, 8356.000000, 0.000000, 0.000000, 0.000000, 3.000000, 672.000000, 1557622643.661220, 4.000000, 4.000000, 4.000000, 4.000000, 4.000000
115.000000, 0.000000, 4017.948730, 4406.153809, 4209.230469, 3986.153809, 4142.563965, 16179.000000, 8147.000000, 8347.000000, 0.000000, 0.000000, 0.000000, 3.000000, 679.799988, 1557622643.669020, 4.000000, 4.000000, 4.000000, 4.000000, 4.000000
116.000000, 0.000000, 4029.230713, 4400.512695, 4209.743652, 3997.948730, 4158.974121, 450.000000, 8148.000000, 8348.000000, 0.000000, 0.000000, 0.000000, 3.000000, 687.599988, 1557622643.676820, 4.000000, 4.000000, 4.000000, 4.000000, 4.000000
117.000000, 0.000000, 4012.820313, 4381.538574, 4206.666504, 3994.871582, 4160.512695, 450.000000, 8144.000000, 8353.000000, 0.000000, 0.000000, 0.000000, 3.000000, 695.599987, 1557622643.684820, 4.000000, 4.000000, 4.000000, 4.000000, 4.000000
118.000000, 0.000000, 4007.692139, 4389.743652, 4215.384277, 3981.025635, 4149.230469, 450.000000, 8144.000000, 8351.000000, 0.000000, 0.000000, 0.000000, 3.000000, 703.499989, 1557622643.692720, 4.000000, 4.000000, 4.000000, 4.000000, 4.000000
119.000000, 0.000000, 4006.666504, 4398.461426, 4209.743652, 3976.410156, 4159.487305, 16179.000000, 8149.000000, 8340.000000, 0.000000, 0.000000, 0.000000, 3.000000, 711.499989, 1557622643.700720, 4.000000, 4.000000, 4.000000, 4.000000, 4.000000
120.000000, 0.000000, 4004.102539, 4388.205078, 4211.794922, 3988.205078, 4176.410156, 450.000000, 8145.000000, 8343.000000, 0.000000, 0.000000, 0.000000, 3.000000, 719.499989, 1557622643.708720, 4.000000, 4.000000, 4.000000, 4.000000, 4.000000
121.000000, 0.000000, 4010.769043, 4387.179199, 4223.589844, 3992.307617, 4172.307617, 450.000000, 8151.000000, 8356.000000, 0.000000, 0.000000, 0.000000, 3.000000, 727.499989, 1557622643.716720, 4.000000, 4.000000, 4.000000, 4.000000, 4.000000
122.000000, 0.000000, 4009.230713, 4390.256348, 4215.897461, 3984.102539, 4168.717773, 450.000000, 8157.000000, 8345.000000, 0.000000, 0.000000, 0.000000, 3.000000, 735.199989, 1557622643.724420, 4.000000, 4.000000, 4.000000, 4.000000, 4.000000
123.000000, 0.000000, 3992.820313, 4375.897461, 4226.666504, 3986.666504, 4172.307617, 16179.000000, 8151.000000, 8343.000000, 0.000000, 0.000000, 0.000000, 3.000000, 742.999985, 1557622643.732220, 4.000000, 4.000000, 4.000000, 4.000000, 4.000000
124.000000, 0.000000, 3993.845947, 4370.256348, 4224.615234, 3993.845947, 4168.205078, 450.000000, 8150.000000, 8355.000000, 0.000000, 0.000000, 0.000000, 3.000000, 750.799988, 1557622643.740020, 4.000000, 4.000000, 4.000000, 4.000000, 4.000000
125.000000, 0.000000, 4001.538330, 4382.051270, 4212.307617, 3991.281982, 4165.641113, 450.000000, 8156.000000, 8355.000000, 0.000000, 0.000000, 0.000000, 3.000000, 758.799988, 1557622643.748020, 4.000000, 4.000000, 4.000000, 4.000000, 4.000000
126.000000, 0.000000, 3987.179443, 4386.666504, 4222.051270, 3994.871582, 4170.256348, 450.000000, 8151.000000, 8353.000000, 0.000000, 0.000000, 0.000000, 3.000000, 766.599991, 1557622643.755820, 4.000000, 4.000000, 4.000000, 4.000000, 4.000000
127.000000, 0.000000, 3991.281982, 4383.589844, 4221.025391, 4007.179443, 4171.794922, 16179.000000, 8152.000000, 8351.000000, 0.000000, 0.000000, 0.000000, 3.000000, 774.599991, 1557622643.763820, 4.000000, 4.000000, 4.000000, 4.000000, 4.000000
128.000000, 0.000000, 4008.205078, 4371.281738, 4220.000000, 4015.897217, 4169.743652, 500.000000, 8152.000000, 8351.000000, 0.000000, 0.000000, 0.000000, 3.000000, 782.599991, 1557622643.771820, 4.000000, 4.000000, 4.000000, 4.000000, 4.000000
0.000000, 0.000000, 3992.307617, 4364.102539, 4217.948730, 4005.640869, 4176.922852, 500.000000, 8156.000000, 8342.000000, 0.000000, 0.000000, 0.000000, 3.000000, 790.499985, 1557622643.779720, 4.000000, 4.000000, 4.000000, 4.000000, 4.000000
1.000000, 0.000000, 4000.000000, 4386.153809, 4212.820313, 3990.256348, 4194.871582, 500.000000, 8149.000000, 8349.000000, 0.000000, 0.000000, 0.000000, 3.000000, 798.199989, 1557622643.787420, 4.000000, 4.000000, 4.000000, 4.000000, 4.000000
2.000000, 0.000000, 4044.102539, 4404.102539, 4215.897461, 3994.358887, 4206.153809, 16201.000000, 8144.000000, 8353.000000, 0.000000, 0.000000, 0.000000, 3.000000, 805.999985, 1557622643.795220, 4.000000, 4.000000, 4.000000, 4.000000, 4.000000
3.000000, 0.000000, 4044.102539, 4389.743652, 4209.743652, 3995.384521, 4200.000000, 500.000000, 8147.000000, 8339.000000, 0.000000, 0.000000, 0.000000, 3.000000, 813.799988, 1557622643.803020, 4.000000, 4.000000, 4.000000, 4.000000, 4.000000
4.000000, 0.000000, 4029.743408, 4386.666504, 4220.000000, 3990.256348, 4201.538574, 16190.000000, 8152.000000, 8343.000000, 0.000000, 0.000000, 0.000000, 3.000000, 821.599991, 1557622643.810820, 4.000000, 4.000000, 4.000000, 4.000000, 4.000000
5.000000, 0.000000, 4045.640869, 4395.897461, 4224.102539, 4001.538330, 4206.666504, 500.000000, 8148.000000, 8356.000000, 0.000000, 0.000000, 0.000000, 3.000000, 829.499985, 1557622643.818720, 4.000000, 4.000000, 4.000000, 4.000000, 4.000000
6.000000, 0.000000, 4047.692139, 4377.948730, 4210.769043, 4013.333252, 4185.127930, 16251.000000, 8143.000000, 8357.000000, 0.000000, 0.000000, 0.000000, 3.000000, 837.499985, 1557622643.826720, 4.000000, 4.000000, 4.000000, 4.000000, 4.000000
7.000000, 0.000000, 4036.410156, 4368.717773, 4213.333008, 4007.692139, 4172.307617, 500.000000, 8146.000000, 8341.000000, 0.000000, 0.000000, 0.000000, 3.000000, 845.499985, 1557622643.834720, 4.000000, 4.000000, 4.000000, 4.000000, 4.000000
8.000000, 0.000000, 4047.179443, 4389.743652, 4210.256348, 4000.000000, 4182.563965, 500.000000, 8140.000000, 8356.000000, 0.000000, 0.000000, 0.000000, 3.000000, 853.499985, 1557622643.842720, 4.000000, 4.000000, 4.000000, 4.000000, 4.000000
9.000000, 0.000000, 4049.230713, 4397.948730, 4213.846191, 3994.358887, 4187.692383, 16070.000000, 8141.000000, 8353.000000, 0.000000, 0.000000, 0.000000, 3.000000, 861.499985, 1557622643.850720, 4.000000, 4.000000, 4.000000, 4.000000, 4.000000
