title:bhushan happy 3, recorded:12.05.19 06.49.48, timestamp started:2019-05-12T06:49:48.287519+05:30, sampling:128, subject:, labels:COUNTER INTERPOLATED AF3 T7 Pz T8 AF4 RAW_CQ GYROX GYROY MARKER MARKER_HARDWARE SYNC TIME_STAMP_s TIME_STAMP_ms TimeStamp CQ_AF3 CQ_T7 CQ_Pz CQ_T8 CQ_AF4, chan:20, samples:4083, units:emotiv
79.000000, 0.000000, 4152.307617, 4669.743652, 4287.692383, 4300.512695, 4077.948730, 16181.000000, 8149.000000, 8336.000000, 1.000000, 5.000000, 0.000000, 0.000000, 0.000000, 1557623988.287520, 4.000000, 4.000000, 0.000000, 4.000000, 4.000000
80.000000, 0.000000, 4130.256348, 4657.435547, 4277.436035, 4290.769043, 4076.923096, 450.000000, 8148.000000, 8332.000000, 0.000000, 0.000000, 0.000000, 0.000000, 7.700012, 1557623988.295220, 4.000000, 4.000000, 0.000000, 4.000000, 4.000000
81.000000, 0.000000, 4125.641113, 4685.127930, 4287.179199, 4300.000000, 4090.256348, 450.000000, 8154.000000, 8333.000000, 0.000000, 0.000000, 0.000000, 0.000000, 15.700012, 1557623988.303220, 4.000000, 4.000000, 0.000000, 4.000000, 4.000000
82.000000, 0.000000, 4140.512695, 4694.871582, 4297.436035, 4315.384277, 4110.256348, 450.000000, 8155.000000, 8346.000000, 0.000000, 0.000000, 0.000000, 0.000000, 23.500000, 1557623988.311020, 4.000000, 4.000000, 0.000000, 4.000000, 4.000000
83.000000, 0.000000, 4154.358887, 4702.051270, 4285.641113, 4302.051270, 4103.589844, 16181.000000, 8159.000000, 8353.000000, 0.000000, 0.000000, 0.000000, 0.000000, 31.500000, 1557623988.319020, 4.000000, 4.000000, 0.000000, 4.000000, 4.000000
84.000000, 0.000000, 4151.281738, 4721.538574, 4281.538574, 4286.666504, 4096.410156, 450.000000, 8163.000000, 8359.000000, 0.000000, 0.000000, 0.000000, 0.000000, 39.500000, 1557623988.327020, 4.000000, 4.000000, 0.000000, 4.000000, 4.000000
85.000000, 0.000000, 4134.871582, 4719.487305, 4282.563965, 4294.358887, 4107.179199, 450.000000, 8159.000000, 8358.000000, 0.000000, 0.000000, 0.000000, 0.000000, 47.400024, 1557623988.334920, 4.000000, 4.000000, 0.000000, 4.000000, 4.000000
86.000000, 0.000000, 4131.794922, 4729.743652, 4289.230469, 4293.333008, 4099.487305, 450.000000, 8169.000000, 8357.000000, 0.000000, 0.000000, 0.000000, 0.000000, 55.400024, 1557623988.342920, 4.000000, 4.000000, 0.000000, 4.000000, 4.000000
87.000000, 0.000000, 4143.589844, 4753.846191, 4289.743652, 4285.127930, 4090.769043, 16181.000000, 8161.000000, 8363.000000, 0.000000, 0.000000, 0.000000, 0.000000, 63.200012, 1557623988.350720, 4.000000, 4.000000, 0.000000, 4.000000, 4.000000
88.000000, 0.000000, 4136.410156, 4752.820313, 4294.358887, 4295.897461, 4105.641113, 450.000000, 8163.000000, 8365.000000, 0.000000, 0.000000, 0.000000, 0.000000, 71.000000, 1557623988.358520, 4.000000, 4.000000, 0.000000, 4.000000, 4.000000
89.000000, 0.000000, 4112.820313, 4756.922852, 4303.589844, 4301.025391, 4108.205078, 450.000000, 8167.000000, 8357.000000, 0.000000, 0.000000, 0.000000, 0.000000, 78.799988, 1557623988.366320, 4.000000, 4.000000, 0.000000, 4.000000, 4.000000
90.000000, 0.000000, 4112.307617, 4777.435547, 4281.538574, 4286.153809, 4090.769043, 450.000000, 8164.000000, 8344.000000, 0.000000, 0.000000, 0.000000, 0.000000, 86.500000, 1557623988.374020, 4.000000, 4.000000, 0.000000, 4.000000, 4.000000
91.000000, 0.000000, 4125.641113, 4787.692383, 4276.922852, 4283.076660, 4088.205078, 16181.000000, 8161.000000, 8355.000000, 0.000000, 0.000000, 0.000000, 0.000000, 94.400024, 1557623988.381920, 4.000000, 4.000000, 0.000000, 4.000000, 4.000000
92.000000, 0.000000, 4129.743652, 4797.435547, 4287.179199, 4287.692383, 4082.563965, 450.000000, 8158.000000, 8351.000000, 0.000000, 0.000000, 0.000000, 0.000000, 102.400024, 1557623988.389920, 4.000000, 4.000000, 0.000000, 4.000000, 4.000000
93.000000, 0.000000, 4130.769043, 4808.717773, 4282.051270, 4282.563965, 4065.128174, 450.000000, 8156.000000, 8339.000000, 0.000000, 0.000000, 0.000000, 0.000000, 110.400024, 1557623988.397920, 4.000000, 4.000000, 0.000000, 4.000000, 4.000000
94.000000, 0.000000, 4145.127930, 4810.256348, 4292.820313, 4291.281738, 4077.948730, 450.000000, 8157.000000, 8348.000000, 0.000000, 0.000000, 0.000000, 0.000000, 118.200012, 1557623988.405720, 4.000000, 4.000000, 0.000000, 4.000000, 4.000000
95.000000, 0.000000, 4153.846191, 4845.641113, 4301.025391, 4304.102539, 4111.794922, 16181.000000, 8152.000000, 8352.000000, 0.000000, 0.000000, 0.000000, 0.000000, 126.099976, 1557623988.413620, 4.000000, 4.000000, 0.000000, 4.000000, 4.000000
96.000000, 0.000000, 4141.538574, 4887.179199, 4294.358887, 4296.410156, 4113.846191, 450.000000, 8146.000000, 8346.000000, 0.000000, 0.000000, 0.000000, 0.000000, 133.900024, 1557623988.421420, 4.000000, 4.000000, 0.000000, 4.000000, 4.000000
97.000000, 0.000000, 4130.769043, 4861.538574, 4281.025391, 4286.666504, 4086.153809, 450.000000, 8146.000000, 8341.000000, 0.000000, 0.000000, 0.000000, 0.000000, 141.700012, 1557623988.429220, 4.000000, 4.000000, 0.000000, 4.000000, 4.000000
98.000000, 0.000000, 4133.846191, 4832.307617, 4270.769043, 4282.051270, 4065.640869, 450.000000, 8141.000000, 8337.000000, 0.000000, 0.000000, 0.000000, 0.000000, 149.599976, 1557623988.437120, 4.000000, 4.000000, 0.000000, 4.000000, 4.000000
99.000000, 0.000000, 4126.153809, 4856.410156, 4279.487305, 4283.589844, 4060.000000, 16181.000000, 8137.000000, 8333.000000, 0.000000, 0.000000, 0.000000, 0.000000, 157.599976, 1557623988.445120, 4.000000, 4.000000, 0.000000, 4.000000, 4.000000
100.000000, 0.000000, 4105.641113, 4877.435547, 4281.025391, 4294.871582, 4067.179443, 450.000000, 8135.000000, 8332.000000, 0.000000, 0.000000, 0.000000, 0.000000, 165.500000, 1557623988.453020, 4.000000, 4.000000, 0.000000, 4.000000, 4.000000
101.000000, 0.000000, 4105.641113, 4860.512695, 4276.410156, 4286.666504, 4068.717773, 450.000000, 8133.000000, 8337.000000, 0.000000, 0.000000, 0.000000, 0.000000, 173.500000, 1557623988.461020, 4.000000, 4.000000, 0.000000, 4.000000, 4.000000
102.000000, 0.000000, 4123.589844, 4850.769043, 4276.922852, 4275.384277, 4057.948730, 450.000000, 8126.000000, 8328.000000, 0.000000, 0.000000, 0.000000, 0.000000, 181.500000, 1557623988.469020, 4.000000, 4.000000, 0.000000, 4.000000, 4.000000
103.000000, 0.000000, 4131.794922, 4874.358887, 4282.563965, 4301.538574, 4069.230713, 16181.000000, 8126.000000, 8322.000000, 0.000000, 0.000000, 0.000000, 0.000000, 189.299988, 1557623988.476820, 4.000000, 4.000000, 0.000000, 4.000000, 4.000000
104.000000, 0.000000, 4130.769043, 4902.051270, 4292.307617, 4315.897461, 4083.589600, 450.000000, 8124.000000, 8329.000000, 0.000000, 0.000000, 0.000000, 0.000000, 197.000000, 1557623988.484520, 4.000000, 4.000000, 0.000000, 4.000000, 4.000000
105.000000, 0.000000, 4131.281738, 4895.384277, 4276.410156, 4292.307617, 4059.487061, 450.000000, 8118.000000, 8328.000000, 0.000000, 0.000000, 0.000000, 0.000000, 204.799988, 1557623988.492320, 4.000000, 4.000000, 0.000000, 4.000000, 4.000000
106.000000, 0.000000, 4142.051270, 4893.846191, 4272.820313, 4284.615234, 4046.666504, 450.000000, 8117.000000, 8314.000000, 0.000000, 0.000000, 0.000000, 0.000000, 212.799988, 1557623988.500320, 4.000000, 4.000000, 0.000000, 4.000000, 4.000000
107.000000, 0.000000, 4156.922852, 4933.846191, 4296.922852, 4300.512695, 4087.179443, 16181.000000, 8118.000000, 8315.000000, 0.000000, 0.000000, 0.000000, 0.000000, 220.599976, 1557623988.508120, 4.000000, 4.000000, 0.000000, 4.000000, 4.000000
108.000000, 0.000000, 4151.281738, 4949.230469, 4294.358887, 4308.717773, 4102.563965, 450.000000, 8113.000000, 8323.000000, 0.000000, 0.000000, 0.000000, 0.000000, 228.500000, 1557623988.516020, 4.000000, 4.000000, 0.000000, 4.000000, 4.000000
109.000000, 0.000000, 4142.051270, 4942.563965, 4291.794922, 4302.563965, 4077.435791, 450.000000, 8117.000000, 8317.000000, 0.000000, 0.000000, 0.000000, 0.000000, 236.400024, 1557623988.523920, 4.000000, 4.000000, 0.000000, 4.000000, 4.000000
110.000000, 0.000000, 4160.512695, 4965.641113, 4296.410156, 4285.127930, 4069.230713, 450.000000, 8124.000000, 8313.000000, 0.000000, 0.000000, 0.000000, 0.000000, 244.400024, 1557623988.531920, 4.000000, 4.000000, 0.000000, 4.000000, 4.000000
111.000000, 0.000000, 4170.256348, 4965.127930, 4297.436035, 4284.615234, 4082.563965, 16181.000000, 8122.000000, 8313.000000, 0.000000, 0.000000, 0.000000, 0.000000, 252.400024, 1557623988.539920, 4.000000, 4.000000, 0.000000, 4.000000, 4.000000
112.000000, 0.000000, 4153.333008, 4943.589844, 4292.820313, 4298.974121, 4091.281982, 450.000000, 8120.000000, 8319.000000, 0.000000, 0.000000, 0.000000, 0.000000, 260.200012, 1557623988.547720, 4.000000, 4.000000, 0.000000, 4.000000, 4.000000
113.000000, 0.000000, 4133.846191, 4972.820313, 4278.974121, 4281.538574, 4074.871582, 450.000000, 8120.000000, 8324.000000, 0.000000, 0.000000, 0.000000, 0.000000, 268.000000, 1557623988.555520, 4.000000, 4.000000, 0.000000, 4.000000, 4.000000
114.000000, 0.000000, 4118.974121, 4984.102539, 4285.127930, 4258.974121, 4050.769043, 450.000000, 8121.000000, 8328.000000, 0.000000, 0.000000, 0.000000, 0.000000, 275.700012, 1557623988.563220, 4.000000, 4.000000, 0.000000, 4.000000, 4.000000
115.000000, 0.000000, 4125.641113, 4946.666504, 4292.307617, 4272.307617, 4055.897217, 16181.000000, 8129.000000, 8324.000000, 0.000000, 0.000000, 0.000000, 0.000000, 283.500000, 1557623988.571020, 4.000000, 4.000000, 0.000000, 4.000000, 4.000000
116.000000, 0.000000, 4160.512695, 4968.717773, 4291.794922, 4288.205078, 4083.076904, 450.000000, 8134.000000, 8316.000000, 0.000000, 0.000000, 0.000000, 0.000000, 291.500000, 1557623988.579020, 4.000000, 4.000000, 0.000000, 4.000000, 4.000000
117.000000, 0.000000, 4163.589844, 5007.179199, 4290.256348, 4284.615234, 4087.179443, 450.000000, 8131.000000, 8326.000000, 0.000000, 0.000000, 0.000000, 0.000000, 299.500000, 1557623988.587020, 4.000000, 4.000000, 0.000000, 4.000000, 4.000000
118.000000, 0.000000, 4120.512695, 4972.820313, 4274.358887, 4276.410156, 4069.743408, 450.000000, 8147.000000, 8334.000000, 0.000000, 0.000000, 0.000000, 0.000000, 307.500000, 1557623988.595020, 4.000000, 4.000000, 0.000000, 4.000000, 4.000000
119.000000, 0.000000, 4111.794922, 4967.692383, 4278.974121, 4267.692383, 4065.640869, 16181.000000, 8149.000000, 8329.000000, 0.000000, 0.000000, 0.000000, 0.000000, 315.400024, 1557623988.602920, 4.000000, 4.000000, 0.000000, 4.000000, 4.000000
120.000000, 0.000000, 4136.922852, 5024.102539, 4294.358887, 4263.076660, 4077.948730, 450.000000, 8153.000000, 8325.000000, 0.000000, 0.000000, 0.000000, 0.000000, 323.200012, 1557623988.610720, 4.000000, 4.000000, 0.000000, 4.000000, 4.000000
121.000000, 0.000000, 4128.205078, 5024.102539, 4296.922852, 4263.076660, 4099.487305, 450.000000, 8156.000000, 8334.000000, 0.000000, 0.000000, 0.000000, 0.000000, 331.000000, 1557623988.618520, 4.000000, 4.000000, 0.000000, 4.000000, 4.000000
122.000000, 0.000000, 4112.820313, 4992.820313, 4287.692383, 4249.743652, 4094.871582, 450.000000, 8154.000000, 8334.000000, 0.000000, 0.000000, 0.000000, 0.000000, 338.799988, 1557623988.626320, 4.000000, 4.000000, 0.000000, 4.000000, 4.000000
123.000000, 0.000000, 4122.051270, 4996.410156, 4267.179199, 4237.948730, 4066.666504, 16181.000000, 8160.000000, 8330.000000, 0.000000, 0.000000, 0.000000, 0.000000, 346.700012, 1557623988.634220, 4.000000, 4.000000, 0.000000, 4.000000, 4.000000
124.000000, 0.000000, 4113.846191, 4996.410156, 4274.358887, 4238.974121, 4068.205078, 450.000000, 8158.000000, 8338.000000, 0.000000, 0.000000, 0.000000, 0.000000, 354.599976, 1557623988.642120, 4.000000, 4.000000, 0.000000, 4.000000, 4.000000
125.000000, 0.000000, 4100.000000, 4996.922852, 4285.641113, 4236.922852, 4095.384521, 450.000000, 8160.000000, 8337.000000, 0.000000, 0.000000, 0.000000, 0.000000, 362.500000, 1557623988.650020, 4.000000, 4.000000, 0.000000, 4.000000, 4.000000
126.000000, 0.000000, 4127.692383, 5015.384277, 4278.974121, 4238.974121, 4091.281982, 450.000000, 8163.000000, 8347.000000, 0.000000, 0.000000, 0.000000, 0.000000, 370.500000, 1557623988.658020, 4.000000, 4.000000, 0.000000, 4.000000, 4.000000
127.000000, 0.000000, 4149.230469, 5016.922852, 4283.076660, 4241.538574, 4064.102539, 16181.000000, 8162.000000, 8345.000000, 0.000000, 0.000000, 0.000000, 0.000000, 378.500000, 1557623988.666020, 4.000000, 4.000000, 0.000000, 4.000000, 4.000000
128.000000, 0.000000, 4125.641113, 5012.820313, 4278.461426, 4230.769043, 4066.666504, 500.000000, 8169.000000, 8354.000000, 0.000000, 0.000000, 0.000000, 0.000000, 386.400000, 1557623988.673920, 4.000000, 4.000000, 0.000000, 4.000000, 4.000000
0.000000, 0.000000, 4112.307617, 5028.717773, 4282.051270, 4233.333008, 4087.692139, 500.000000, 8165.000000, 8353.000000, 0.000000, 0.000000, 0.000000, 0.000000, 394.200000, 1557623988.681720, 4.000000, 4.000000, 0.000000, 4.000000, 4.000000
1.000000, 0.000000, 4136.922852, 5021.025391, 4289.743652, 4258.974121, 4095.384521, 500.000000, 8165.000000, 8357.000000, 0.000000, 0.000000, 0.000000, 0.000000, 402.000000, 1557623988.689520, 4.000000, 4.000000, 0.000000, 4.000000, 4.000000
2.000000, 0.000000, 4162.051270, 5003.076660, 4272.307617, 4263.589844, 4089.743408, 16188.000000, 8167.000000, 8361.000000, 0.000000, 0.000000, 0.000000, 0.000000, 409.799999, 1557623988.697320, 4.000000, 4.000000, 0.000000, 4.000000, 4.000000
3.000000, 0.000000, 4155.897461, 5028.205078, 4269.743652, 4238.974121, 4091.281982, 500.000000, 8170.000000, 8354.000000, 0.000000, 0.000000, 0.000000, 0.000000, 417.599998, 1557623988.705120, 4.000000, 4.000000, 0.000000, 4.000000, 4.000000
4.000000, 0.000000, 4136.410156, 5053.333008, 4288.205078, 4223.589844, 4109.230469, 16166.000000, 8165.000000, 8349.000000, 0.000000, 0.000000, 0.000000, 0.000000, 425.400002, 1557623988.712920, 4.000000, 4.000000, 0.000000, 4.000000, 4.000000
5.000000, 0.000000, 4127.692383, 5040.512695, 4307.179199, 4232.307617, 4116.410156, 500.000000, 8162.000000, 8365.000000, 0.000000, 0.000000, 0.000000, 0.000000, 433.400002, 1557623988.720920, 4.000000, 4.000000, 0.000000, 4.000000, 4.000000
6.000000, 0.000000, 4109.743652, 5013.333008, 4298.461426, 4229.743652, 4093.845947, 0.000000, 8160.000000, 8360.000000, 0.000000, 0.000000, 0.000000, 0.000000, 441.400002, 1557623988.728920, 4.000000, 4.000000, 0.000000, 4.000000, 4.000000
7.000000, 0.000000, 4086.153809, 5003.589844, 4274.358887, 4214.358887, 4062.563965, 500.000000, 8163.000000, 8355.000000, 0.000000, 0.000000, 0.000000, 0.000000, 449.400002, 1557623988.736920, 4.000000, 4.000000, 0.000000, 4.000000, 4.000000
8.000000, 0.000000, 4103.076660, 5025.127930, 4278.974121, 4227.179199, 4062.051270, 500.000000, 8158.000000, 8351.000000, 0.000000, 0.000000, 0.000000, 0.000000, 457.199997, 1557623988.744720, 4.000000, 4.000000, 0.000000, 4.000000, 4.000000
9.000000, 0.000000, 4132.820313, 5046.153809, 4286.153809, 4245.127930, 4084.615234, 16057.000000, 8155.000000, 8352.000000, 0.000000, 0.000000, 0.000000, 0.000000, 464.900002, 1557623988.752420, 4.000000, 4.000000, 0.000000, 4.000000, 4.000000
10.000000, 0.000000, 4133.333008, 5041.538574, 4288.205078, 4233.333008, 4096.410156, 500.000000, 8149.000000, 8349.000000, 0.000000, 0.000000, 0.000000, 0.000000, 472.699997, 1557623988.760220, 4.000000, 4.000000, 0.000000, 4.000000, 4.000000
11.000000, 0.000000, 4150.256348, 5044.102539, 4287.179199, 4229.743652, 4104.102539, 16185.000000, 8154.000000, 8353.000000, 0.000000, 0.000000, 0.000000, 0.000000, 480.699997, 1557623988.768220, 4.000000, 4.000000, 0.000000, 4.000000, 4.000000
12.000000, 0.000000, 4172.307617, 5043.589844, 4275.384277, 4245.641113, 4113.333008, 500.000000, 8152.000000, 8361.000000, 0.000000, 0.000000, 0.000000, 0.000000, 488.699997, 1557623988.776220, 4.000000, 4.000000, 0.000000, 4.000000, 4.000000
13.000000, 0.000000, 4157.948730, 5024.615234, 4276.410156, 4238.974121, 4101.538574, 500.000000, 8149.000000, 8356.000000, 0.000000, 0.000000, 0.000000, 0.000000, 496.599998, 1557623988.784120, 4.000000, 4.000000, 0.000000, 4.000000, 4.000000
14.000000, 0.000000, 4149.743652, 5032.307617, 4274.871582, 4216.922852, 4089.743408, 450.000000, 8148.000000, 8361.000000, 0.000000, 0.000000, 0.000000, 0.000000, 504.500000, 1557623988.792020, 4.000000, 4.000000, 0.000000, 4.000000, 4.000000
15.000000, 0.000000, 4172.820313, 5063.076660, 4276.410156, 4217.948730, 4108.205078, 16185.000000, 8147.000000, 8366.000000, 0.000000, 0.000000, 0.000000, 0.000000, 512.500000, 1557623988.800020, 4.000000, 4.000000, 0.000000, 4.000000, 4.000000
16.000000, 0.000000, 4181.538574, 5054.871582, 4285.641113, 4223.076660, 4129.743652, 0.000000, 8149.000000, 8356.000000, 0.000000, 0.000000, 0.000000, 0.000000, 520.300003, 1557623988.807820, 4.000000, 4.000000, 0.000000, 4.000000, 4.000000
17.000000, 0.000000, 4169.743652, 5038.461426, 4280.512695, 4210.769043, 4123.589844, 0.000000, 8150.000000, 8351.000000, 0.000000, 0.000000, 0.000000, 0.000000, 528.100006, 1557623988.815620, 4.000000, 4.000000, 0.000000, 4.000000, 4.000000
18.000000, 0.000000, 4169.230469, 5045.127930, 4283.076660, 4200.512695, 4106.666504, 0.000000, 8146.000000, 8361.000000, 0.000000, 0.000000, 0.000000, 0.000000, 535.899994, 1557623988.823420, 4.000000, 4.000000, 0.000000, 4.000000, 4.000000
19.000000, 0.000000, 4171.281738, 5040.512695, 4279.487305, 4196.410156, 4104.615234, 0.000000, 8157.000000, 8356.000000, 0.000000, 0.000000, 0.000000, 0.000000, 543.600006, 1557623988.831120, 4.000000, 4.000000, 0.000000, 4.000000, 4.000000
20.000000, 0.000000, 4165.127930, 5037.435547, 4277.948730, 4203.076660, 4114.358887, 0.000000, 8158.000000, 8344.000000, 0.000000, 0.000000, 0.000000, 0.000000, 551.600006, 1557623988.839120, 4.000000, 4.000000, 0.000000, 4.000000, 4.000000
21.000000, 0.000000, 4157.436035, 5034.871582, 4291.794922, 4216.922852, 4126.666504, 0.000000, 8165.000000, 8352.000000, 0.000000, 0.000000, 0.000000, 0.000000, 559.500000, 1557623988.847020, 4.000000, 4.000000, 0.000000, 4.000000, 4.000000
22.000000, 0.000000, 4163.589844, 5028.205078, 4282.563965, 4218.974121, 4118.974121, 0.000000, 8165.000000, 8358.000000, 0.000000, 0.000000, 0.000000, 0.000000, 567.500000, 1557623988.855020, 4.000000, 4.000000, 0.000000, 4.000000, 4.000000
23.000000, 0.000000, 4180.512695, 5040.000000, 4274.871582, 4215.897461, 4104.615234, 0.000000, 8168.000000, 8350.000000, 0.000000, 0.000000, 0.000000, 0.000000, 575.399994, 1557623988.862920, 4.000000, 4.000000, 0.000000, 4.000000, 4.000000
24.000000, 0.000000, 4175.897461, 5041.025391, 4278.974121, 4216.410156, 4126.153809, 0.000000, 8165.000000, 8352.000000, 0.000000, 0.000000, 0.000000, 0.000000, 583.199997, 1557623988.870720, 4.000000, 4.000000, 0.000000, 4.000000, 4.000000
25.000000, 0.000000, 4162.051270, 5018.461426, 4276.410156, 4209.743652, 4141.025391, 0.000000, 8162.000000, 8357.000000, 0.000000, 0.000000, 0.000000, 0.000000, 591.000000, 1557623988.878520, 4.000000, 4.000000, 0.000000, 4.000000, 4.000000
26.000000, 0.000000, 4170.256348, 5028.205078, 4278.974121, 4199.487305, 4121.538574, 0.000000, 8166.000000, 8351.000000, 0.000000, 0.000000, 0.000000, 0.000000, 598.800003, 1557623988.886320, 4.000000, 4.000000, 0.000000, 4.000000, 4.000000
27.000000, 0.000000, 4195.897461, 5065.641113, 4279.487305, 4197.948730, 4124.102539, 0.000000, 8165.000000, 8348.000000, 0.000000, 0.000000, 0.000000, 0.000000, 606.699997, 1557623988.894220, 4.000000, 4.000000, 0.000000, 4.000000, 4.000000
28.000000, 0.000000, 4201.538574, 5059.486816, 4271.281738, 4194.358887, 4129.230469, 0.000000, 8160.000000, 8350.000000, 0.000000, 0.000000, 0.000000, 0.000000, 614.600006, 1557623988.902120, 4.000000, 4.000000, 0.000000, 4.000000, 4.000000
29.000000, 0.000000, 4174.871582, 5028.205078, 4261.025391, 4180.512695, 4101.538574, 0.000000, 8146.000000, 8357.000000, 0.000000, 0.000000, 0.000000, 0.000000, 622.500000, 1557623988.910020, 4.000000, 4.000000, 0.000000, 4.000000, 4.000000
30.000000, 0.000000, 4169.743652, 5025.641113, 4281.538574, 4170.769043, 4111.281738, 0.000000, 8152.000000, 8344.000000, 0.000000, 0.000000, 0.000000, 0.000000, 630.500000, 1557623988.918020, 4.000000, 4.000000, 0.000000, 4.000000, 4.000000
31.000000, 0.000000, 4198.974121, 5041.538574, 4304.102539, 4170.256348, 4142.563965, 0.000000, 8140.000000, 8352.000000, 0.000000, 0.000000, 0.000000, 0.000000, 638.500000, 1557623988.926020, 4.000000, 4.000000, 0.000000, 4.000000, 4.000000
32.000000, 0.000000, 4207.179199, 5060.000000, 4277.436035, 4170.256348, 4130.769043, 0.000000, 8138.000000, 8339.000000, 0.000000, 0.000000, 0.000000, 0.000000, 646.299988, 1557623988.933820, 4.000000, 4.000000, 0.000000, 4.000000, 4.000000
33.000000, 0.000000, 4196.922852, 5060.000000, 4271.794922, 4169.743652, 4122.563965, 0.000000, 8136.000000, 8327.000000, 0.000000, 0.000000, 0.000000, 0.000000, 654.000000, 1557623988.941520, 4.000000, 4.000000, 0.000000, 4.000000, 4.000000
34.000000, 0.000000, 4200.512695, 5034.358887, 4290.256348, 4168.205078, 4142.563965, 0.000000, 8136.000000, 8340.000000, 0.000000, 0.000000, 0.000000, 0.000000, 661.799988, 1557623988.949320, 4.000000, 4.000000, 0.000000, 4.000000, 4.000000
35.000000, 0.000000, 4201.538574, 5026.153809, 4284.102539, 4158.974121, 4148.717773, 0.000000, 8127.000000, 8349.000000, 0.000000, 0.000000, 0.000000, 0.000000, 669.600006, 1557623988.957120, 4.000000, 4.000000, 0.000000, 4.000000, 4.000000
36.000000, 0.000000, 4209.230469, 5050.769043, 4284.615234, 4146.153809, 4146.666504, 0.000000, 8121.000000, 8350.000000, 0.000000, 0.000000, 0.000000, 0.000000, 677.600006, 1557623988.965120, 4.000000, 4.000000, 0.000000, 4.000000, 4.000000
37.000000, 0.000000, 4230.256348, 5057.435547, 4291.281738, 4150.769043, 4166.153809, 0.000000, 8124.000000, 8345.000000, 0.000000, 0.000000, 0.000000, 0.000000, 685.500000, 1557623988.973020, 4.000000, 4.000000, 0.000000, 4.000000, 4.000000
38.000000, 0.000000, 4218.974121, 5020.512695, 4292.820313, 4160.000000, 4168.717773, 0.000000, 8113.000000, 8348.000000, 0.000000, 0.000000, 0.000000, 0.000000, 693.399994, 1557623988.980920, 4.000000, 4.000000, 0.000000, 4.000000, 4.000000
39.000000, 0.000000, 4198.461426, 5000.000000, 4283.589844, 4144.615234, 4139.487305, 0.000000, 8118.000000, 8349.000000, 0.000000, 0.000000, 0.000000, 0.000000, 701.399994, 1557623988.988920, 4.000000, 4.000000, 0.000000, 4.000000, 4.000000
40.000000, 0.000000, 4205.127930, 5007.179199, 4265.127930, 4121.538574, 4126.153809, 0.000000, 8120.000000, 8345.000000, 0.000000, 0.000000, 0.000000, 0.000000, 709.399994, 1557623988.996920, 4.000000, 4.000000, 0.000000, 4.000000, 4.000000
41.000000, 0.000000, 4204.615234, 4991.794922, 4261.025391, 4118.461426, 4136.410156, 0.000000, 8123.000000, 8352.000000, 0.000000, 0.000000, 0.000000, 0.000000, 717.200012, 1557623989.004720, 4.000000, 4.000000, 0.000000, 4.000000, 4.000000
42.000000, 0.000000, 4203.589844, 4983.589844, 4256.410156, 4124.615234, 4136.410156, 0.000000, 8124.000000, 8360.000000, 0.000000, 0.000000, 0.000000, 0.000000, 725.000000, 1557623989.012520, 4.000000, 4.000000, 0.000000, 4.000000, 4.000000
43.000000, 0.000000, 4216.410156, 5010.256348, 4261.025391, 4125.641113, 4133.333008, 0.000000, 8129.000000, 8353.000000, 0.000000, 0.000000, 0.000000, 0.000000, 732.899994, 1557623989.020420, 4.000000, 4.000000, 0.000000, 4.000000, 4.000000
44.000000, 0.000000, 4213.846191, 5015.384277, 4264.615234, 4129.743652, 4143.076660, 0.000000, 8136.000000, 8348.000000, 0.000000, 0.000000, 0.000000, 0.000000, 740.799988, 1557623989.028320, 4.000000, 4.000000, 0.000000, 4.000000, 4.000000
45.000000, 0.000000, 4197.436035, 4984.102539, 4247.179199, 4123.589844, 4129.230469, 0.000000, 8138.000000, 8353.000000, 0.000000, 0.000000, 0.000000, 0.000000, 748.799988, 1557623989.036320, 4.000000, 4.000000, 0.000000, 4.000000, 4.000000
46.000000, 0.000000, 4196.922852, 4980.512695, 4251.794922, 4106.666504, 4116.922852, 0.000000, 8143.000000, 8343.000000, 0.000000, 0.000000, 0.000000, 0.000000, 756.600006, 1557623989.044120, 4.000000, 4.000000, 0.000000, 4.000000, 4.000000
47.000000, 0.000000, 4208.205078, 4991.281738, 4264.615234, 4111.281738, 4131.794922, 0.000000, 8143.000000, 8338.000000, 0.000000, 0.000000, 0.000000, 0.000000, 764.600006, 1557623989.052120, 4.000000, 4.000000, 0.000000, 4.000000, 4.000000
48.000000, 0.000000, 4226.666504, 4983.076660, 4265.127930, 4126.666504, 4131.794922, 0.000000, 8143.000000, 8351.000000, 0.000000, 0.000000, 0.000000, 0.000000, 772.500000, 1557623989.060020, 4.000000, 4.000000, 0.000000, 4.000000, 4.000000
49.000000, 0.000000, 4242.563965, 4991.794922, 4261.025391, 4123.076660, 4124.102539, 0.000000, 8151.000000, 8357.000000, 0.000000, 0.000000, 0.000000, 0.000000, 780.299988, 1557623989.067820, 4.000000, 4.000000, 0.000000, 4.000000, 4.000000
50.000000, 0.000000, 4239.487305, 5001.538574, 4260.512695, 4121.025391, 4145.127930, 0.000000, 8154.000000, 8349.000000, 0.000000, 0.000000, 0.000000, 0.000000, 788.100006, 1557623989.075620, 4.000000, 4.000000, 0.000000, 4.000000, 4.000000
51.000000, 0.000000, 4237.948730, 4986.666504, 4269.743652, 4130.769043, 4162.563965, 0.000000, 8161.000000, 8347.000000, 0.000000, 0.000000, 0.000000, 0.000000, 795.899994, 1557623989.083420, 4.000000, 4.000000, 0.000000, 4.000000, 4.000000
52.000000, 0.000000, 4234.358887, 4966.153809, 4244.102539, 4107.692383, 4116.922852, 0.000000, 8164.000000, 8346.000000, 0.000000, 0.000000, 0.000000, 0.000000, 803.700012, 1557623989.091220, 4.000000, 4.000000, 0.000000, 4.000000, 4.000000
53.000000, 0.000000, 4207.179199, 4957.435547, 4233.846191, 4080.000000, 4076.410156, 0.000000, 8167.000000, 8355.000000, 0.000000, 0.000000, 0.000000, 0.000000, 811.500000, 1557623989.099020, 4.000000, 4.000000, 0.000000, 4.000000, 4.000000
54.000000, 0.000000, 4196.922852, 4956.410156, 4262.051270, 4089.743408, 4103.589844, 0.000000, 8167.000000, 8364.000000, 0.000000, 0.000000, 0.000000, 0.000000, 819.399994, 1557623989.106920, 4.000000, 4.000000, 0.000000, 4.000000, 4.000000
55.000000, 0.000000, 4221.025391, 4957.435547, 4258.974121, 4095.897217, 4130.769043, 0.000000, 8161.000000, 8372.000000, 0.000000, 0.000000, 0.000000, 0.000000, 827.399994, 1557623989.114920, 4.000000, 4.000000, 0.000000, 4.000000, 4.000000
56.000000, 0.000000, 4225.641113, 4952.820313, 4255.384277, 4087.179443, 4120.000000, 0.000000, 8162.000000, 8370.000000, 0.000000, 0.000000, 0.000000, 0.000000, 835.399994, 1557623989.122920, 4.000000, 4.000000, 0.000000, 4.000000, 4.000000
57.000000, 0.000000, 4207.179199, 4950.769043, 4259.487305, 4083.589600, 4111.281738, 0.000000, 8168.000000, 8360.000000, 0.000000, 0.000000, 0.000000, 0.000000, 843.299988, 1557623989.130820, 4.000000, 4.000000, 0.000000, 4.000000, 4.000000
58.000000, 0.000000, 4218.974121, 4950.769043, 4256.922852, 4082.563965, 4127.692383, 0.000000, 8163.000000, 8375.000000, 0.000000, 0.000000, 0.000000, 0.000000, 851.100006, 1557623989.138620, 4.000000, 4.000000, 0.000000, 4.000000, 4.000000
59.000000, 0.000000, 4238.974121, 4940.000000, 4257.436035, 4076.410156, 4128.717773, 0.000000, 8162.000000, 8380.000000, 0.000000, 0.000000, 0.000000, 0.000000, 858.899994, 1557623989.146420, 4.000000, 4.000000, 0.000000, 4.000000, 4.000000
60.000000, 0.000000, 4230.769043, 4935.897461, 4253.846191, 4065.640869, 4107.692383, 0.000000, 8166.000000, 8365.000000, 0.000000, 0.000000, 0.000000, 0.000000, 866.700012, 1557623989.154220, 4.000000, 4.000000, 0.000000, 4.000000, 4.000000
61.000000, 0.000000, 4231.794922, 4932.820313, 4256.922852, 4057.948730, 4107.692383, 0.000000, 8164.000000, 8375.000000, 0.000000, 0.000000, 0.000000, 0.000000, 874.500000, 1557623989.162020, 4.000000, 4.000000, 0.000000, 4.000000, 4.000000
62.000000, 0.000000, 4241.025391, 4931.794922, 4254.871582, 4048.717773, 4125.641113, 0.000000, 8158.000000, 8369.000000, 0.000000, 0.000000, 0.000000, 0.000000, 882.399994, 1557623989.169920, 4.000000, 4.000000, 0.000000, 4.000000, 4.000000
63.000000, 0.000000, 4234.871582, 4936.922852, 4248.205078, 4026.666504, 4126.666504, 0.000000, 8156.000000, 8365.000000, 0.000000, 0.000000, 0.000000, 0.000000, 890.399994, 1557623989.177920, 4.000000, 4.000000, 0.000000, 4.000000, 4.000000
64.000000, 0.000000, 4231.281738, 4923.076660, 4252.307617, 4012.820313, 4118.461426, 500.000000, 8160.000000, 8377.000000, 0.000000, 0.000000, 0.000000, 0.000000, 898.400024, 1557623989.185920, 4.000000, 4.000000, 0.000000, 4.000000, 4.000000
65.000000, 0.000000, 4229.230469, 4907.692383, 4243.589844, 4024.102539, 4113.333008, 500.000000, 8154.000000, 8383.000000, 0.000000, 0.000000, 0.000000, 0.000000, 906.400024, 1557623989.193920, 4.000000, 4.000000, 0.000000, 4.000000, 4.000000
66.000000, 0.000000, 4216.410156, 4908.717773, 4231.281738, 4017.948730, 4088.717773, 16196.000000, 8154.000000, 8397.000000, 0.000000, 0.000000, 0.000000, 0.000000, 914.200012, 1557623989.201720, 4.000000, 4.000000, 0.000000, 4.000000, 4.000000
67.000000, 0.000000, 4223.076660, 4904.102539, 4232.307617, 4000.512695, 4081.538330, 500.000000, 8146.000000, 8400.000000, 0.000000, 0.000000, 0.000000, 0.000000, 921.900024, 1557623989.209420, 4.000000, 4.000000, 0.000000, 4.000000, 4.000000
68.000000, 0.000000, 4237.436035, 4885.641113, 4246.666504, 4019.487061, 4114.871582, 16158.000000, 8143.000000, 8401.000000, 0.000000, 0.000000, 0.000000, 0.000000, 929.700012, 1557623989.217220, 4.000000, 4.000000, 0.000000, 4.000000, 4.000000
69.000000, 0.000000, 4218.974121, 4880.512695, 4256.922852, 4031.281982, 4125.641113, 500.000000, 8148.000000, 8398.000000, 0.000000, 0.000000, 0.000000, 0.000000, 937.500000, 1557623989.225020, 4.000000, 4.000000, 0.000000, 4.000000, 4.000000
70.000000, 0.000000, 4211.794922, 4892.307617, 4241.025391, 4008.205078, 4107.179199, 8.000000, 8140.000000, 8397.000000, 0.000000, 0.000000, 0.000000, 0.000000, 945.500000, 1557623989.233020, 4.000000, 4.000000, 0.000000, 4.000000, 4.000000
71.000000, 0.000000, 4243.589844, 4909.743652, 4248.717773, 3997.435791, 4116.922852, 500.000000, 8133.000000, 8408.000000, 0.000000, 0.000000, 0.000000, 0.000000, 953.500000, 1557623989.241020, 4.000000, 4.000000, 0.000000, 4.000000, 4.000000
72.000000, 0.000000, 4256.410156, 4913.333008, 4269.230469, 4007.179443, 4149.230469, 500.000000, 8129.000000, 8400.000000, 0.000000, 0.000000, 0.000000, 0.000000, 961.400024, 1557623989.248920, 4.000000, 4.000000, 0.000000, 4.000000, 4.000000
73.000000, 0.000000, 4245.127930, 4890.256348, 4261.025391, 4002.051270, 4142.051270, 16067.000000, 8123.000000, 8388.000000, 0.000000, 0.000000, 0.000000, 0.000000, 969.400024, 1557623989.256920, 4.000000, 4.000000, 0.000000, 4.000000, 4.000000
74.000000, 0.000000, 4247.692383, 4875.897461, 4260.000000, 3982.051270, 4110.256348, 500.000000, 8123.000000, 8386.000000, 0.000000, 0.000000, 0.000000, 0.000000, 977.400024, 1557623989.264920, 4.000000, 4.000000, 0.000000, 4.000000, 4.000000
75.000000, 0.000000, 4251.281738, 4872.307617, 4244.102539, 3968.717773, 4098.974121, 16187.000000, 8122.000000, 8395.000000, 0.000000, 0.000000, 0.000000, 0.000000, 985.200012, 1557623989.272720, 4.000000, 4.000000, 0.000000, 4.000000, 4.000000
76.000000, 0.000000, 4250.769043, 4864.102539, 4224.615234, 3974.358887, 4098.461426, 500.000000, 8124.000000, 8383.000000, 0.000000, 0.000000, 0.000000, 0.000000, 992.900024, 1557623989.280420, 4.000000, 4.000000, 0.000000, 4.000000, 4.000000
77.000000, 0.000000, 4251.794922, 4850.769043, 4230.769043, 3989.230713, 4094.871582, 500.000000, 8125.000000, 8384.000000, 0.000000, 0.000000, 0.000000, 1.000000, 0.700012, 1557623989.288220, 4.000000, 4.000000, 0.000000, 4.000000, 4.000000
78.000000, 0.000000, 4253.333008, 4844.615234, 4240.000000, 3984.102539, 4101.538574, 450.000000, 8124.000000, 8382.000000, 0.000000, 0.000000, 0.000000, 1.000000, 8.500000, 1557623989.296020, 4.000000, 4.000000, 0.000000, 4.000000, 4.000000
79.000000, 0.000000, 4261.025391, 4850.769043, 4242.563965, 3972.820313, 4112.820313, 16187.000000, 8131.000000, 8378.000000, 0.000000, 0.000000, 0.000000, 1.000000, 16.500000, 1557623989.304020, 4.000000, 4.000000, 0.000000, 4.000000, 4.000000
80.000000, 0.000000, 4263.076660, 4849.230469, 4226.666504, 3973.845947, 4101.538574, 450.000000, 8137.000000, 8378.000000, 0.000000, 0.000000, 0.000000, 1.000000, 24.500000, 1557623989.312020, 4.000000, 4.000000, 0.000000, 4.000000, 4.000000
81.000000, 0.000000, 4245.127930, 4837.948730, 4228.205078, 3961.538330, 4096.410156, 450.000000, 8149.000000, 8382.000000, 0.000000, 0.000000, 0.000000, 1.000000, 32.400024, 1557623989.319920, 4.000000, 4.000000, 0.000000, 4.000000, 4.000000
82.000000, 0.000000, 4237.948730, 4824.615234, 4245.127930, 3936.410156, 4112.307617, 450.000000, 8146.000000, 8379.000000, 0.000000, 0.000000, 0.000000, 1.000000, 40.400024, 1557623989.327920, 4.000000, 4.000000, 0.000000, 4.000000, 4.000000
83.000000, 0.000000, 4256.410156, 4820.000000, 4238.461426, 3937.435791, 4112.307617, 16187.000000, 8155.000000, 8374.000000, 0.000000, 0.000000, 0.000000, 1.000000, 48.200012, 1557623989.335720, 4.000000, 4.000000, 0.000000, 4.000000, 4.000000
84.000000, 0.000000, 4253.846191, 4828.205078, 4243.076660, 3962.051270, 4103.589844, 450.000000, 8159.000000, 8375.000000, 0.000000, 0.000000, 0.000000, 1.000000, 56.000000, 1557623989.343520, 4.000000, 4.000000, 0.000000, 4.000000, 4.000000
85.000000, 0.000000, 4227.179199, 4830.769043, 4245.127930, 3955.897461, 4096.922852, 450.000000, 8154.000000, 8376.000000, 0.000000, 0.000000, 0.000000, 1.000000, 63.799988, 1557623989.351320, 4.000000, 4.000000, 0.000000, 4.000000, 4.000000
86.000000, 0.000000, 4213.333008, 4815.897461, 4229.230469, 3916.410156, 4071.794678, 450.000000, 8155.000000, 8357.000000, 0.000000, 0.000000, 0.000000, 1.000000, 71.500000, 1557623989.359020, 4.000000, 4.000000, 0.000000, 4.000000, 4.000000
87.000000, 0.000000, 4203.076660, 4791.794922, 4223.076660, 3913.845947, 4044.102539, 16187.000000, 8154.000000, 8357.000000, 0.000000, 0.000000, 0.000000, 1.000000, 79.400024, 1557623989.366920, 4.000000, 4.000000, 0.000000, 4.000000, 4.000000
88.000000, 0.000000, 4188.205078, 4774.871582, 4231.281738, 3938.461426, 4055.897217, 450.000000, 8153.000000, 8359.000000, 0.000000, 0.000000, 0.000000, 1.000000, 87.400024, 1557623989.374920, 4.000000, 4.000000, 0.000000, 4.000000, 4.000000
89.000000, 0.000000, 4202.563965, 4772.307617, 4245.641113, 3930.256348, 4082.563965, 450.000000, 8144.000000, 8360.000000, 0.000000, 0.000000, 0.000000, 1.000000, 95.400024, 1557623989.382920, 4.000000, 4.000000, 0.000000, 4.000000, 4.000000
90.000000, 0.000000, 4251.281738, 4782.563965, 4233.846191, 3924.615234, 4090.256348, 450.000000, 8145.000000, 8350.000000, 0.000000, 0.000000, 0.000000, 1.000000, 103.400024, 1557623989.390920, 4.000000, 4.000000, 0.000000, 4.000000, 4.000000
91.000000, 0.000000, 4268.717773, 4769.743652, 4217.436035, 3946.666504, 4088.717773, 16187.000000, 8142.000000, 8360.000000, 0.000000, 0.000000, 0.000000, 1.000000, 111.099976, 1557623989.398620, 4.000000, 4.000000, 0.000000, 4.000000, 4.000000
92.000000, 0.000000, 4242.563965, 4736.410156, 4217.436035, 3941.538330, 4089.230713, 450.000000, 8143.000000, 8356.000000, 0.000000, 0.000000, 0.000000, 1.000000, 118.900024, 1557623989.406420, 4.000000, 4.000000, 0.000000, 4.000000, 4.000000
93.000000, 0.000000, 4247.179199, 4744.615234, 4207.179199, 3918.974365, 4088.717773, 450.000000, 8136.000000, 8357.000000, 0.000000, 0.000000, 0.000000, 1.000000, 126.700012, 1557623989.414220, 4.000000, 4.000000, 0.000000, 4.000000, 4.000000
94.000000, 0.000000, 4268.717773, 4776.922852, 4214.871582, 3923.589600, 4088.717773, 450.000000, 8128.000000, 8356.000000, 0.000000, 0.000000, 0.000000, 1.000000, 134.700012, 1557623989.422220, 4.000000, 4.000000, 0.000000, 4.000000, 4.000000
95.000000, 0.000000, 4254.871582, 4775.384277, 4233.846191, 3932.307617, 4097.948730, 16187.000000, 8129.000000, 8345.000000, 0.000000, 0.000000, 0.000000, 1.000000, 142.599976, 1557623989.430120, 4.000000, 4.000000, 0.000000, 4.000000, 4.000000
96.000000, 0.000000, 4246.153809, 4746.153809, 4236.410156, 3926.666504, 4111.794922, 450.000000, 8136.000000, 8345.000000, 0.000000, 0.000000, 0.000000, 1.000000, 150.500000, 1557623989.438020, 4.000000, 4.000000, 0.000000, 4.000000, 4.000000
97.000000, 0.000000, 4261.538574, 4720.512695, 4226.666504, 3913.333252, 4109.230469, 450.000000, 8131.000000, 8353.000000, 0.000000, 0.000000, 0.000000, 1.000000, 158.500000, 1557623989.446020, 4.000000, 4.000000, 0.000000, 4.000000, 4.000000
98.000000, 0.000000, 4274.358887, 4728.717773, 4216.410156, 3907.179443, 4111.281738, 450.000000, 8122.000000, 8359.000000, 0.000000, 0.000000, 0.000000, 1.000000, 166.500000, 1557623989.454020, 4.000000, 4.000000, 0.000000, 4.000000, 4.000000
99.000000, 0.000000, 4281.538574, 4742.563965, 4226.153809, 3916.923096, 4127.692383, 16187.000000, 8129.000000, 8349.000000, 0.000000, 0.000000, 0.000000, 1.000000, 174.299988, 1557623989.461820, 4.000000, 4.000000, 0.000000, 4.000000, 4.000000
100.000000, 0.000000, 4266.153809, 4726.666504, 4221.025391, 3903.076904, 4121.025391, 450.000000, 8128.000000, 8347.000000, 0.000000, 0.000000, 0.000000, 1.000000, 182.000000, 1557623989.469520, 4.000000, 4.000000, 0.000000, 4.000000, 4.000000
101.000000, 0.000000, 4247.692383, 4722.563965, 4205.641113, 3870.769043, 4101.025391, 450.000000, 8128.000000, 8361.000000, 0.000000, 0.000000, 0.000000, 1.000000, 189.799988, 1557623989.477320, 4.000000, 4.000000, 0.000000, 4.000000, 4.000000
102.000000, 0.000000, 4272.307617, 4734.871582, 4212.307617, 3879.487061, 4109.743652, 450.000000, 8132.000000, 8366.000000, 0.000000, 0.000000, 0.000000, 1.000000, 197.599976, 1557623989.485120, 4.000000, 4.000000, 0.000000, 4.000000, 4.000000
103.000000, 0.000000, 4281.025391, 4716.922852, 4215.897461, 3898.461426, 4128.717773, 16187.000000, 8139.000000, 8354.000000, 0.000000, 0.000000, 0.000000, 1.000000, 205.500000, 1557623989.493020, 4.000000, 4.000000, 0.000000, 4.000000, 4.000000
104.000000, 0.000000, 4249.743652, 4685.127930, 4213.333008, 3884.102539, 4124.615234, 450.000000, 8141.000000, 8364.000000, 0.000000, 0.000000, 0.000000, 1.000000, 213.500000, 1557623989.501020, 4.000000, 4.000000, 0.000000, 4.000000, 4.000000
105.000000, 0.000000, 4254.358887, 4675.897461, 4206.153809, 3883.076904, 4108.205078, 450.000000, 8142.000000, 8369.000000, 0.000000, 0.000000, 0.000000, 1.000000, 221.400024, 1557623989.508920, 4.000000, 4.000000, 0.000000, 4.000000, 4.000000
106.000000, 0.000000, 4270.256348, 4682.563965, 4208.205078, 3891.281982, 4103.589844, 450.000000, 8148.000000, 8366.000000, 0.000000, 0.000000, 0.000000, 1.000000, 229.400024, 1557623989.516920, 4.000000, 4.000000, 0.000000, 4.000000, 4.000000
107.000000, 0.000000, 4252.820313, 4688.717773, 4221.025391, 3870.769043, 4104.615234, 16187.000000, 8155.000000, 8361.000000, 0.000000, 0.000000, 0.000000, 1.000000, 237.400024, 1557623989.524920, 4.000000, 4.000000, 0.000000, 4.000000, 4.000000
108.000000, 0.000000, 4247.692383, 4677.435547, 4212.307617, 3862.051270, 4105.127930, 450.000000, 8162.000000, 8351.000000, 0.000000, 0.000000, 0.000000, 1.000000, 245.200012, 1557623989.532720, 4.000000, 4.000000, 0.000000, 4.000000, 4.000000
109.000000, 0.000000, 4269.230469, 4672.820313, 4217.436035, 3881.538330, 4122.051270, 450.000000, 8171.000000, 8343.000000, 0.000000, 0.000000, 0.000000, 1.000000, 253.000000, 1557623989.540520, 4.000000, 4.000000, 0.000000, 4.000000, 4.000000
110.000000, 0.000000, 4283.589844, 4696.410156, 4230.256348, 3875.384521, 4146.153809, 450.000000, 8176.000000, 8347.000000, 0.000000, 0.000000, 0.000000, 1.000000, 260.700012, 1557623989.548220, 4.000000, 4.000000, 0.000000, 4.000000, 4.000000
111.000000, 0.000000, 4269.743652, 4687.692383, 4208.717773, 3841.025635, 4129.743652, 16187.000000, 8180.000000, 8351.000000, 0.000000, 0.000000, 0.000000, 1.000000, 268.500000, 1557623989.556020, 4.000000, 4.000000, 0.000000, 4.000000, 4.000000
112.000000, 0.000000, 4244.615234, 4658.974121, 4203.589844, 3825.640869, 4100.512695, 450.000000, 8184.000000, 8339.000000, 0.000000, 0.000000, 0.000000, 1.000000, 276.500000, 1557623989.564020, 4.000000, 4.000000, 0.000000, 4.000000, 4.000000
113.000000, 0.000000, 4254.871582, 4676.410156, 4218.974121, 3826.153809, 4114.358887, 450.000000, 8191.000000, 8343.000000, 0.000000, 0.000000, 0.000000, 1.000000, 284.500000, 1557623989.572020, 4.000000, 4.000000, 0.000000, 4.000000, 4.000000
114.000000, 0.000000, 4277.436035, 4680.000000, 4224.615234, 3820.000000, 4128.717773, 450.000000, 8190.000000, 8351.000000, 0.000000, 0.000000, 0.000000, 1.000000, 292.500000, 1557623989.580020, 4.000000, 4.000000, 0.000000, 4.000000, 4.000000
115.000000, 0.000000, 4271.281738, 4656.410156, 4229.230469, 3815.384521, 4122.051270, 16187.000000, 8190.000000, 8354.000000, 0.000000, 0.000000, 0.000000, 1.000000, 300.400024, 1557623989.587920, 4.000000, 4.000000, 0.000000, 4.000000, 4.000000
116.000000, 0.000000, 4264.615234, 4667.179199, 4226.666504, 3817.435791, 4128.717773, 450.000000, 8193.000000, 8346.000000, 0.000000, 0.000000, 0.000000, 1.000000, 308.200012, 1557623989.595720, 4.000000, 4.000000, 0.000000, 4.000000, 4.000000
117.000000, 0.000000, 4267.692383, 4662.563965, 4211.794922, 3810.769043, 4118.974121, 450.000000, 8199.000000, 8351.000000, 0.000000, 0.000000, 0.000000, 1.000000, 316.000000, 1557623989.603520, 4.000000, 4.000000, 0.000000, 4.000000, 4.000000
118.000000, 0.000000, 4261.025391, 4615.384277, 4192.307617, 3799.487061, 4092.307617, 450.000000, 8193.000000, 8358.000000, 0.000000, 0.000000, 0.000000, 1.000000, 323.799988, 1557623989.611320, 4.000000, 4.000000, 0.000000, 4.000000, 4.000000
119.000000, 0.000000, 4267.692383, 4613.333008, 4207.692383, 3805.128174, 4106.666504, 16187.000000, 8194.000000, 8351.000000, 0.000000, 0.000000, 0.000000, 1.000000, 331.599976, 1557623989.619120, 4.000000, 4.000000, 0.000000, 4.000000, 4.000000
120.000000, 0.000000, 4281.538574, 4646.153809, 4224.102539, 3815.897461, 4136.922852, 450.000000, 8197.000000, 8342.000000, 0.000000, 0.000000, 0.000000, 1.000000, 339.500000, 1557623989.627020, 4.000000, 4.000000, 0.000000, 4.000000, 4.000000
121.000000, 0.000000, 4272.820313, 4637.435547, 4199.487305, 3816.923096, 4129.230469, 450.000000, 8194.000000, 8337.000000, 0.000000, 0.000000, 0.000000, 1.000000, 347.500000, 1557623989.635020, 4.000000, 4.000000, 0.000000, 4.000000, 4.000000
122.000000, 0.000000, 4257.436035, 4612.820313, 4196.922852, 3812.820313, 4120.512695, 450.000000, 8190.000000, 8335.000000, 0.000000, 0.000000, 0.000000, 1.000000, 355.400024, 1557623989.642920, 4.000000, 4.000000, 0.000000, 4.000000, 4.000000
123.000000, 0.000000, 4268.717773, 4605.641113, 4198.461426, 3805.640869, 4128.717773, 16187.000000, 8188.000000, 8338.000000, 0.000000, 0.000000, 0.000000, 1.000000, 363.400024, 1557623989.650920, 4.000000, 4.000000, 0.000000, 4.000000, 4.000000
124.000000, 0.000000, 4289.743652, 4601.538574, 4194.358887, 3802.563965, 4133.333008, 450.000000, 8186.000000, 8336.000000, 0.000000, 0.000000, 0.000000, 1.000000, 371.099976, 1557623989.658620, 4.000000, 4.000000, 0.000000, 4.000000, 4.000000
125.000000, 0.000000, 4291.794922, 4607.692383, 4212.307617, 3803.589600, 4148.717773, 450.000000, 8190.000000, 8330.000000, 0.000000, 0.000000, 0.000000, 1.000000, 378.900024, 1557623989.666420, 4.000000, 4.000000, 0.000000, 4.000000, 4.000000
126.000000, 0.000000, 4272.820313, 4617.948730, 4212.307617, 3798.461426, 4158.974121, 450.000000, 8176.000000, 8327.000000, 0.000000, 0.000000, 0.000000, 1.000000, 386.700000, 1557623989.674220, 4.000000, 4.000000, 0.000000, 4.000000, 4.000000
127.000000, 0.000000, 4262.563965, 4606.153809, 4204.615234, 3791.794678, 4147.692383, 16187.000000, 8172.000000, 8340.000000, 0.000000, 0.000000, 0.000000, 1.000000, 394.500000, 1557623989.682020, 4.000000, 4.000000, 0.000000, 4.000000, 4.000000
128.000000, 0.000000, 4278.461426, 4592.820313, 4199.487305, 3792.307617, 4137.436035, 500.000000, 8159.000000, 8339.000000, 0.000000, 0.000000, 0.000000, 1.000000, 402.500000, 1557623989.690020, 4.000000, 4.000000, 0.000000, 4.000000, 4.000000
0.000000, 0.000000, 4286.153809, 4585.127930, 4184.615234, 3794.358887, 4124.102539, 500.000000, 8160.000000, 8326.000000, 0.000000, 0.000000, 0.000000, 1.000000, 410.400000, 1557623989.697920, 4.000000, 4.000000, 0.000000, 4.000000, 4.000000
1.000000, 0.000000, 4264.102539, 4561.538574, 4176.410156, 3794.358887, 4110.769043, 500.000000, 8153.000000, 8344.000000, 0.000000, 0.000000, 0.000000, 1.000000, 418.400002, 1557623989.705920, 4.000000, 4.000000, 0.000000, 4.000000, 4.000000
2.000000, 0.000000, 4241.025391, 4545.641113, 4180.000000, 3786.666504, 4115.384277, 16190.000000, 8143.000000, 8358.000000, 0.000000, 0.000000, 0.000000, 1.000000, 426.400002, 1557623989.713920, 4.000000, 4.000000, 0.000000, 4.000000, 4.000000
3.000000, 0.000000, 4248.717773, 4562.051270, 4191.794922, 3783.589600, 4121.025391, 500.000000, 8131.000000, 8360.000000, 0.000000, 0.000000, 0.000000, 1.000000, 434.400002, 1557623989.721920, 4.000000, 4.000000, 0.000000, 4.000000, 4.000000
4.000000, 0.000000, 4249.230469, 4569.743652, 4193.846191, 3789.743408, 4125.641113, 16165.000000, 8129.000000, 8352.000000, 0.000000, 0.000000, 0.000000, 1.000000, 442.200001, 1557623989.729720, 4.000000, 4.000000, 0.000000, 4.000000, 4.000000
5.000000, 0.000000, 4231.281738, 4545.127930, 4194.358887, 3793.333252, 4135.897461, 500.000000, 8116.000000, 8360.000000, 0.000000, 0.000000, 0.000000, 1.000000, 449.900002, 1557623989.737420, 4.000000, 4.000000, 0.000000, 4.000000, 4.000000
6.000000, 0.000000, 4240.512695, 4525.127930, 4192.307617, 3789.743408, 4125.641113, 23.000000, 8117.000000, 8359.000000, 0.000000, 0.000000, 0.000000, 1.000000, 457.699997, 1557623989.745220, 4.000000, 4.000000, 0.000000, 4.000000, 4.000000
7.000000, 0.000000, 4249.230469, 4538.974121, 4180.000000, 3773.845947, 4107.179199, 500.000000, 8111.000000, 8364.000000, 0.000000, 0.000000, 0.000000, 1.000000, 465.500000, 1557623989.753020, 4.000000, 4.000000, 0.000000, 4.000000, 4.000000
8.000000, 0.000000, 4237.436035, 4560.512695, 4193.333008, 3766.666504, 4120.000000, 500.000000, 8108.000000, 8367.000000, 0.000000, 0.000000, 0.000000, 1.000000, 473.500000, 1557623989.761020, 4.000000, 4.000000, 0.000000, 4.000000, 4.000000
9.000000, 0.000000, 4226.666504, 4540.512695, 4192.307617, 3774.871582, 4125.127930, 16073.000000, 8110.000000, 8367.000000, 0.000000, 0.000000, 0.000000, 1.000000, 481.500000, 1557623989.769020, 4.000000, 4.000000, 0.000000, 4.000000, 4.000000
10.000000, 0.000000, 4233.333008, 4506.666504, 4163.076660, 3773.845947, 4103.589844, 500.000000, 8116.000000, 8374.000000, 0.000000, 0.000000, 0.000000, 1.000000, 489.400002, 1557623989.776920, 4.000000, 4.000000, 0.000000, 4.000000, 4.000000
11.000000, 0.000000, 4251.281738, 4519.487305, 4171.281738, 3765.128174, 4108.205078, 16154.000000, 8116.000000, 8380.000000, 0.000000, 0.000000, 0.000000, 1.000000, 497.400002, 1557623989.784920, 4.000000, 4.000000, 0.000000, 4.000000, 4.000000
12.000000, 0.000000, 4251.281738, 4542.563965, 4191.281738, 3760.512695, 4130.256348, 500.000000, 8120.000000, 8392.000000, 0.000000, 0.000000, 0.000000, 1.000000, 505.199997, 1557623989.792720, 4.000000, 4.000000, 0.000000, 4.000000, 4.000000
13.000000, 0.000000, 4240.000000, 4534.358887, 4194.871582, 3761.538330, 4129.743652, 500.000000, 8126.000000, 8389.000000, 0.000000, 0.000000, 0.000000, 1.000000, 513.000000, 1557623989.800520, 4.000000, 4.000000, 0.000000, 4.000000, 4.000000
14.000000, 0.000000, 4250.769043, 4536.410156, 4183.076660, 3764.615234, 4118.974121, 450.000000, 8131.000000, 8387.000000, 0.000000, 0.000000, 0.000000, 1.000000, 520.899994, 1557623989.808420, 4.000000, 4.000000, 0.000000, 4.000000, 4.000000
15.000000, 0.000000, 4265.641113, 4540.000000, 4175.897461, 3773.333252, 4124.615234, 16154.000000, 8142.000000, 8402.000000, 0.000000, 0.000000, 0.000000, 1.000000, 528.600006, 1557623989.816120, 4.000000, 4.000000, 0.000000, 4.000000, 4.000000
16.000000, 0.000000, 4251.794922, 4512.820313, 4194.871582, 3778.974365, 4137.436035, 0.000000, 8144.000000, 8396.000000, 0.000000, 0.000000, 0.000000, 1.000000, 536.500000, 1557623989.824020, 4.000000, 4.000000, 0.000000, 4.000000, 4.000000
17.000000, 0.000000, 4246.666504, 4501.025391, 4186.666504, 3769.743408, 4125.127930, 0.000000, 8148.000000, 8390.000000, 0.000000, 0.000000, 0.000000, 1.000000, 544.500000, 1557623989.832020, 4.000000, 4.000000, 0.000000, 4.000000, 4.000000
18.000000, 0.000000, 4250.769043, 4508.717773, 4165.127930, 3748.205078, 4098.461426, 0.000000, 8153.000000, 8395.000000, 0.000000, 0.000000, 0.000000, 1.000000, 552.500000, 1557623989.840020, 4.000000, 4.000000, 0.000000, 4.000000, 4.000000
19.000000, 0.000000, 4229.230469, 4495.897461, 4171.794922, 3735.384521, 4090.769043, 0.000000, 8157.000000, 8399.000000, 0.000000, 0.000000, 0.000000, 1.000000, 560.399994, 1557623989.847920, 4.000000, 4.000000, 0.000000, 4.000000, 4.000000
20.000000, 0.000000, 4219.487305, 4492.307617, 4177.436035, 3743.589600, 4097.436035, 0.000000, 8157.000000, 8401.000000, 0.000000, 0.000000, 0.000000, 1.000000, 568.399994, 1557623989.855920, 4.000000, 4.000000, 0.000000, 4.000000, 4.000000
21.000000, 0.000000, 4232.307617, 4509.230469, 4176.410156, 3742.051270, 4098.974121, 0.000000, 8159.000000, 8400.000000, 0.000000, 0.000000, 0.000000, 1.000000, 576.199997, 1557623989.863720, 4.000000, 4.000000, 0.000000, 4.000000, 4.000000
22.000000, 0.000000, 4236.410156, 4500.512695, 4175.897461, 3733.333252, 4100.512695, 0.000000, 8163.000000, 8406.000000, 0.000000, 0.000000, 0.000000, 1.000000, 584.000000, 1557623989.871520, 4.000000, 4.000000, 0.000000, 4.000000, 4.000000
23.000000, 0.000000, 4228.205078, 4472.820313, 4180.512695, 3737.435791, 4094.871582, 0.000000, 8168.000000, 8401.000000, 0.000000, 0.000000, 0.000000, 1.000000, 591.800003, 1557623989.879320, 4.000000, 4.000000, 0.000000, 4.000000, 4.000000
24.000000, 0.000000, 4235.384277, 4460.000000, 4171.281738, 3736.923096, 4087.179443, 0.000000, 8160.000000, 8414.000000, 0.000000, 0.000000, 0.000000, 1.000000, 599.500000, 1557623989.887020, 4.000000, 4.000000, 0.000000, 4.000000, 4.000000
25.000000, 0.000000, 4242.563965, 4442.563965, 4159.487305, 3738.461426, 4101.538574, 0.000000, 8161.000000, 8424.000000, 0.000000, 0.000000, 0.000000, 1.000000, 607.500000, 1557623989.895020, 4.000000, 4.000000, 0.000000, 4.000000, 4.000000
26.000000, 0.000000, 4232.820313, 4430.769043, 4171.281738, 3748.205078, 4106.666504, 0.000000, 8162.000000, 8415.000000, 0.000000, 0.000000, 0.000000, 1.000000, 615.500000, 1557623989.903020, 4.000000, 4.000000, 0.000000, 4.000000, 4.000000
27.000000, 0.000000, 4234.871582, 4454.871582, 4160.000000, 3738.974365, 4090.256348, 0.000000, 8155.000000, 8421.000000, 0.000000, 0.000000, 0.000000, 1.000000, 623.500000, 1557623989.911020, 4.000000, 4.000000, 0.000000, 4.000000, 4.000000
28.000000, 0.000000, 4233.333008, 4464.102539, 4141.025391, 3715.897461, 4071.281982, 0.000000, 8161.000000, 8432.000000, 0.000000, 0.000000, 0.000000, 1.000000, 631.500000, 1557623989.919020, 4.000000, 4.000000, 0.000000, 4.000000, 4.000000
29.000000, 0.000000, 4209.230469, 4435.897461, 4156.922852, 3716.923096, 4057.435791, 0.000000, 8154.000000, 8432.000000, 0.000000, 0.000000, 0.000000, 1.000000, 639.200012, 1557623989.926720, 4.000000, 4.000000, 0.000000, 4.000000, 4.000000
30.000000, 0.000000, 4199.487305, 4445.127930, 4168.717773, 3728.717773, 4069.230713, 0.000000, 8158.000000, 8415.000000, 0.000000, 0.000000, 0.000000, 1.000000, 647.000000, 1557623989.934520, 4.000000, 4.000000, 0.000000, 4.000000, 4.000000
31.000000, 0.000000, 4201.025391, 4467.179199, 4169.743652, 3720.000000, 4083.076904, 0.000000, 8158.000000, 8399.000000, 0.000000, 0.000000, 0.000000, 1.000000, 654.799988, 1557623989.942320, 4.000000, 4.000000, 0.000000, 4.000000, 4.000000
32.000000, 0.000000, 4182.563965, 4439.487305, 4162.563965, 3713.845947, 4069.743408, 0.000000, 8154.000000, 8400.000000, 0.000000, 0.000000, 0.000000, 1.000000, 662.600006, 1557623989.950120, 4.000000, 4.000000, 0.000000, 4.000000, 4.000000
33.000000, 0.000000, 4173.846191, 4422.563965, 4161.538574, 3726.666504, 4058.974365, 0.000000, 8157.000000, 8392.000000, 0.000000, 0.000000, 0.000000, 1.000000, 670.500000, 1557623989.958020, 4.000000, 4.000000, 0.000000, 4.000000, 4.000000
34.000000, 0.000000, 4183.076660, 4437.435547, 4169.230469, 3729.230713, 4060.512695, 0.000000, 8148.000000, 8389.000000, 0.000000, 0.000000, 0.000000, 1.000000, 678.399994, 1557623989.965920, 4.000000, 4.000000, 0.000000, 4.000000, 4.000000
35.000000, 0.000000, 4170.769043, 4417.435547, 4151.281738, 3706.153809, 4038.974365, 0.000000, 8144.000000, 8376.000000, 0.000000, 0.000000, 0.000000, 1.000000, 686.399994, 1557623989.973920, 4.000000, 4.000000, 0.000000, 4.000000, 4.000000
36.000000, 0.000000, 4150.256348, 4387.692383, 4146.153809, 3686.153809, 4019.487061, 0.000000, 8141.000000, 8371.000000, 0.000000, 0.000000, 0.000000, 1.000000, 694.399994, 1557623989.981920, 4.000000, 4.000000, 0.000000, 4.000000, 4.000000
37.000000, 0.000000, 4150.256348, 4383.076660, 4150.769043, 3697.435791, 4027.179443, 0.000000, 8137.000000, 8375.000000, 0.000000, 0.000000, 0.000000, 1.000000, 702.399994, 1557623989.989920, 4.000000, 4.000000, 0.000000, 4.000000, 4.000000
38.000000, 0.000000, 4179.487305, 4383.589844, 4147.692383, 3727.692139, 4046.153809, 0.000000, 8135.000000, 8383.000000, 0.000000, 0.000000, 0.000000, 1.000000, 710.200012, 1557623989.997720, 4.000000, 4.000000, 0.000000, 4.000000, 4.000000
39.000000, 0.000000, 4216.410156, 4403.076660, 4162.563965, 3736.410156, 4076.410156, 0.000000, 8136.000000, 8369.000000, 0.000000, 0.000000, 0.000000, 1.000000, 717.899994, 1557623990.005420, 4.000000, 4.000000, 0.000000, 4.000000, 4.000000
40.000000, 0.000000, 4224.102539, 4419.487305, 4156.922852, 3717.948730, 4080.512695, 0.000000, 8134.000000, 8369.000000, 0.000000, 0.000000, 0.000000, 1.000000, 725.700012, 1557623990.013220, 4.000000, 4.000000, 0.000000, 4.000000, 4.000000
41.000000, 0.000000, 4213.333008, 4398.974121, 4147.179199, 3705.128174, 4063.076904, 0.000000, 8136.000000, 8386.000000, 0.000000, 0.000000, 0.000000, 1.000000, 733.500000, 1557623990.021020, 4.000000, 4.000000, 0.000000, 4.000000, 4.000000
42.000000, 0.000000, 4216.410156, 4386.666504, 4156.922852, 3712.307617, 4073.333252, 0.000000, 8131.000000, 8389.000000, 0.000000, 0.000000, 0.000000, 1.000000, 741.500000, 1557623990.029020, 4.000000, 4.000000, 0.000000, 4.000000, 4.000000
43.000000, 0.000000, 4220.000000, 4400.512695, 4162.563965, 3716.923096, 4081.538330, 0.000000, 8135.000000, 8375.000000, 0.000000, 0.000000, 0.000000, 1.000000, 749.399994, 1557623990.036920, 4.000000, 4.000000, 0.000000, 4.000000, 4.000000
44.000000, 0.000000, 4203.076660, 4397.435547, 4160.512695, 3709.743408, 4057.948730, 0.000000, 8136.000000, 8378.000000, 0.000000, 0.000000, 0.000000, 1.000000, 757.399994, 1557623990.044920, 4.000000, 4.000000, 0.000000, 4.000000, 4.000000
45.000000, 0.000000, 4185.641113, 4392.820313, 4154.871582, 3705.128174, 4055.384521, 0.000000, 8134.000000, 8380.000000, 0.000000, 0.000000, 0.000000, 1.000000, 765.200012, 1557623990.052720, 4.000000, 4.000000, 0.000000, 4.000000, 4.000000
46.000000, 0.000000, 4198.461426, 4409.743652, 4156.922852, 3712.820313, 4073.333252, 0.000000, 8136.000000, 8368.000000, 0.000000, 0.000000, 0.000000, 1.000000, 773.000000, 1557623990.060520, 4.000000, 4.000000, 0.000000, 4.000000, 4.000000
47.000000, 0.000000, 4230.256348, 4405.641113, 4144.615234, 3716.410156, 4068.717773, 0.000000, 8143.000000, 8363.000000, 0.000000, 0.000000, 0.000000, 1.000000, 780.799988, 1557623990.068320, 4.000000, 4.000000, 0.000000, 4.000000, 4.000000
48.000000, 0.000000, 4225.127930, 4389.230469, 4135.384277, 3703.076904, 4066.153809, 0.000000, 8138.000000, 8367.000000, 0.000000, 0.000000, 0.000000, 1.000000, 788.600006, 1557623990.076120, 4.000000, 4.000000, 0.000000, 4.000000, 4.000000
49.000000, 0.000000, 4195.897461, 4407.692383, 4150.769043, 3689.230713, 4077.948730, 0.000000, 8140.000000, 8363.000000, 0.000000, 0.000000, 0.000000, 1.000000, 796.500000, 1557623990.084020, 4.000000, 4.000000, 0.000000, 4.000000, 4.000000
50.000000, 0.000000, 4205.641113, 4429.230469, 4149.230469, 3681.538330, 4087.179443, 0.000000, 8146.000000, 8368.000000, 0.000000, 0.000000, 0.000000, 1.000000, 804.500000, 1557623990.092020, 4.000000, 4.000000, 0.000000, 4.000000, 4.000000
51.000000, 0.000000, 4227.179199, 4404.615234, 4148.205078, 3680.512695, 4096.922852, 0.000000, 8146.000000, 8374.000000, 0.000000, 0.000000, 0.000000, 1.000000, 812.500000, 1557623990.100020, 4.000000, 4.000000, 0.000000, 4.000000, 4.000000
52.000000, 0.000000, 4231.794922, 4393.846191, 4160.000000, 3689.743408, 4105.641113, 0.000000, 8149.000000, 8386.000000, 0.000000, 0.000000, 0.000000, 1.000000, 820.500000, 1557623990.108020, 4.000000, 4.000000, 0.000000, 4.000000, 4.000000
53.000000, 0.000000, 4246.666504, 4433.846191, 4160.512695, 3688.205078, 4110.769043, 0.000000, 8147.000000, 8379.000000, 0.000000, 0.000000, 0.000000, 1.000000, 828.399994, 1557623990.115920, 4.000000, 4.000000, 0.000000, 4.000000, 4.000000
54.000000, 0.000000, 4268.717773, 4451.794922, 4160.512695, 3680.512695, 4111.281738, 0.000000, 8147.000000, 8390.000000, 0.000000, 0.000000, 0.000000, 1.000000, 836.200012, 1557623990.123720, 4.000000, 4.000000, 0.000000, 4.000000, 4.000000
55.000000, 0.000000, 4267.692383, 4434.871582, 4148.717773, 3684.102539, 4103.076660, 0.000000, 8153.000000, 8385.000000, 0.000000, 0.000000, 0.000000, 1.000000, 844.000000, 1557623990.131520, 4.000000, 4.000000, 0.000000, 4.000000, 4.000000
56.000000, 0.000000, 4264.102539, 4422.563965, 4153.846191, 3698.461426, 4111.281738, 0.000000, 8158.000000, 8377.000000, 0.000000, 0.000000, 0.000000, 1.000000, 851.799988, 1557623990.139320, 4.000000, 4.000000, 0.000000, 4.000000, 4.000000
57.000000, 0.000000, 4269.230469, 4433.333008, 4169.230469, 3709.743408, 4134.871582, 0.000000, 8155.000000, 8370.000000, 0.000000, 0.000000, 0.000000, 1.000000, 859.600006, 1557623990.147120, 4.000000, 4.000000, 0.000000, 4.000000, 4.000000
58.000000, 0.000000, 4260.000000, 4450.256348, 4161.025391, 3701.025635, 4139.487305, 0.000000, 8160.000000, 8379.000000, 0.000000, 0.000000, 0.000000, 1.000000, 867.500000, 1557623990.155020, 4.000000, 4.000000, 0.000000, 4.000000, 4.000000
59.000000, 0.000000, 4246.666504, 4453.333008, 4165.127930, 3679.487061, 4141.538574, 0.000000, 8158.000000, 8376.000000, 0.000000, 0.000000, 0.000000, 1.000000, 875.500000, 1557623990.163020, 4.000000, 4.000000, 0.000000, 4.000000, 4.000000
60.000000, 0.000000, 4242.563965, 4446.666504, 4160.512695, 3661.538330, 4133.846191, 0.000000, 8160.000000, 8364.000000, 0.000000, 0.000000, 0.000000, 1.000000, 883.500000, 1557623990.171020, 4.000000, 4.000000, 0.000000, 4.000000, 4.000000
61.000000, 0.000000, 4253.846191, 4454.871582, 4145.641113, 3648.717773, 4106.666504, 0.000000, 8171.000000, 8358.000000, 0.000000, 0.000000, 0.000000, 1.000000, 891.500000, 1557623990.179020, 4.000000, 4.000000, 0.000000, 4.000000, 4.000000
62.000000, 0.000000, 4266.153809, 4475.384277, 4160.000000, 3633.845947, 4121.025391, 0.000000, 8178.000000, 8356.000000, 0.000000, 0.000000, 0.000000, 1.000000, 899.299988, 1557623990.186820, 4.000000, 4.000000, 0.000000, 4.000000, 4.000000
63.000000, 0.000000, 4249.743652, 4466.666504, 4166.666504, 3632.820313, 4153.333008, 0.000000, 8179.000000, 8351.000000, 0.000000, 0.000000, 0.000000, 1.000000, 907.000000, 1557623990.194520, 4.000000, 4.000000, 0.000000, 4.000000, 4.000000
64.000000, 0.000000, 4234.871582, 4445.641113, 4156.410156, 3642.051270, 4125.641113, 500.000000, 8179.000000, 8356.000000, 0.000000, 0.000000, 0.000000, 1.000000, 914.799988, 1557623990.202320, 4.000000, 4.000000, 0.000000, 4.000000, 4.000000
65.000000, 0.000000, 4261.025391, 4448.717773, 4162.051270, 3650.769043, 4115.897461, 500.000000, 8185.000000, 8367.000000, 0.000000, 0.000000, 0.000000, 1.000000, 922.799988, 1557623990.210320, 4.000000, 4.000000, 0.000000, 4.000000, 4.000000
66.000000, 0.000000, 4280.000000, 4441.025391, 4175.384277, 3651.794678, 4157.948730, 16197.000000, 8180.000000, 8363.000000, 0.000000, 0.000000, 0.000000, 1.000000, 930.799988, 1557623990.218320, 4.000000, 4.000000, 0.000000, 4.000000, 4.000000
67.000000, 0.000000, 4258.974121, 4415.384277, 4154.358887, 3621.025635, 4141.025391, 500.000000, 8186.000000, 8369.000000, 0.000000, 0.000000, 0.000000, 1.000000, 938.700012, 1557623990.226220, 4.000000, 4.000000, 0.000000, 4.000000, 4.000000
68.000000, 0.000000, 4267.179199, 4403.589844, 4131.794922, 3599.487061, 4102.563965, 16175.000000, 8183.000000, 8379.000000, 0.000000, 0.000000, 0.000000, 1.000000, 946.500000, 1557623990.234020, 4.000000, 4.000000, 0.000000, 4.000000, 4.000000
69.000000, 0.000000, 4241.025391, 4332.820313, 4121.538574, 3563.076904, 4055.384521, 500.000000, 8189.000000, 8367.000000, 0.000000, 0.000000, 0.000000, 1.000000, 954.400024, 1557623990.241920, 4.000000, 4.000000, 0.000000, 4.000000, 4.000000
70.000000, 0.000000, 4059.487061, 4138.974121, 4036.410156, 3410.256348, 3874.871582, 10.000000, 8187.000000, 8375.000000, 0.000000, 0.000000, 0.000000, 1.000000, 962.400024, 1557623990.249920, 4.000000, 4.000000, 0.000000, 4.000000, 4.000000
71.000000, 0.000000, 3838.461426, 3945.128174, 3947.179443, 3215.384521, 3650.769043, 500.000000, 8179.000000, 8382.000000, 0.000000, 0.000000, 0.000000, 1.000000, 970.200012, 1557623990.257720, 4.000000, 4.000000, 0.000000, 4.000000, 4.000000
72.000000, 0.000000, 3730.256348, 3846.153809, 3957.948730, 3129.230713, 3564.102539, 500.000000, 8174.000000, 8377.000000, 0.000000, 0.000000, 0.000000, 1.000000, 977.900024, 1557623990.265420, 4.000000, 4.000000, 0.000000, 4.000000, 4.000000
73.000000, 0.000000, 3671.281982, 3793.845947, 3977.435791, 3110.256348, 3551.281982, 16079.000000, 8181.000000, 8369.000000, 0.000000, 0.000000, 0.000000, 1.000000, 985.700012, 1557623990.273220, 4.000000, 4.000000, 0.000000, 4.000000, 4.000000
74.000000, 0.000000, 3601.538330, 3742.563965, 3967.179443, 3076.410156, 3502.051270, 500.000000, 8180.000000, 8369.000000, 0.000000, 0.000000, 0.000000, 1.000000, 993.599976, 1557623990.281120, 4.000000, 4.000000, 0.000000, 4.000000, 4.000000
75.000000, 0.000000, 3584.102539, 3688.717773, 3955.897461, 3060.512695, 3457.948730, 16165.000000, 8178.000000, 8360.000000, 0.000000, 0.000000, 0.000000, 2.000000, 1.599976, 1557623990.289120, 4.000000, 4.000000, 0.000000, 4.000000, 4.000000
76.000000, 0.000000, 3608.205078, 3668.717773, 3951.281982, 3064.615234, 3451.794678, 500.000000, 8176.000000, 8357.000000, 0.000000, 0.000000, 0.000000, 2.000000, 9.500000, 1557623990.297020, 4.000000, 4.000000, 0.000000, 4.000000, 4.000000
77.000000, 0.000000, 3610.256348, 3693.333252, 3974.358887, 3066.666504, 3467.179443, 500.000000, 8176.000000, 8356.000000, 0.000000, 0.000000, 0.000000, 2.000000, 17.400024, 1557623990.304920, 4.000000, 4.000000, 0.000000, 4.000000, 4.000000
78.000000, 0.000000, 3601.538330, 3693.333252, 3982.563965, 3070.256348, 3467.692139, 450.000000, 8175.000000, 8350.000000, 0.000000, 0.000000, 0.000000, 2.000000, 25.400024, 1557623990.312920, 4.000000, 4.000000, 0.000000, 4.000000, 4.000000
79.000000, 0.000000, 3617.948730, 3660.000000, 3965.128174, 3067.179443, 3438.461426, 16165.000000, 8172.000000, 8337.000000, 0.000000, 0.000000, 0.000000, 2.000000, 33.200012, 1557623990.320720, 4.000000, 4.000000, 0.000000, 4.000000, 4.000000
80.000000, 0.000000, 3631.281982, 3642.563965, 3957.948730, 3069.743408, 3428.205078, 450.000000, 8172.000000, 8338.000000, 0.000000, 0.000000, 0.000000, 2.000000, 41.000000, 1557623990.328520, 4.000000, 4.000000, 0.000000, 4.000000, 4.000000
81.000000, 0.000000, 3605.640869, 3646.666504, 3973.845947, 3081.538330, 3447.179443, 450.000000, 8163.000000, 8352.000000, 0.000000, 0.000000, 0.000000, 2.000000, 48.799988, 1557623990.336320, 4.000000, 4.000000, 0.000000, 4.000000, 4.000000
82.000000, 0.000000, 3597.948730, 3682.051270, 4002.051270, 3074.871826, 3454.871826, 450.000000, 8165.000000, 8359.000000, 0.000000, 0.000000, 0.000000, 2.000000, 56.500000, 1557623990.344020, 4.000000, 4.000000, 0.000000, 4.000000, 4.000000
83.000000, 0.000000, 3626.153809, 3713.845947, 3992.820313, 3061.025635, 3445.640869, 16165.000000, 8164.000000, 8348.000000, 0.000000, 0.000000, 0.000000, 2.000000, 64.500000, 1557623990.352020, 4.000000, 4.000000, 0.000000, 4.000000, 4.000000
84.000000, 0.000000, 3639.487061, 3690.256348, 3976.410156, 3068.717773, 3444.615234, 450.000000, 8159.000000, 8357.000000, 0.000000, 0.000000, 0.000000, 2.000000, 72.500000, 1557623990.360020, 4.000000, 4.000000, 0.000000, 4.000000, 4.000000
85.000000, 0.000000, 3634.358887, 3671.794678, 3984.102539, 3089.230713, 3466.153809, 450.000000, 8165.000000, 8361.000000, 0.000000, 0.000000, 0.000000, 2.000000, 80.500000, 1557623990.368020, 4.000000, 4.000000, 0.000000, 4.000000, 4.000000
86.000000, 0.000000, 3634.871826, 3696.410156, 3993.333252, 3089.230713, 3493.845947, 450.000000, 8166.000000, 8347.000000, 0.000000, 0.000000, 0.000000, 2.000000, 88.500000, 1557623990.376020, 4.000000, 4.000000, 0.000000, 4.000000, 4.000000
87.000000, 0.000000, 3646.666504, 3698.461426, 3997.948730, 3087.179443, 3500.512695, 16165.000000, 8165.000000, 8353.000000, 0.000000, 0.000000, 0.000000, 2.000000, 96.200012, 1557623990.383720, 4.000000, 4.000000, 0.000000, 4.000000, 4.000000
88.000000, 0.000000, 3666.666504, 3683.589600, 3989.743408, 3106.666504, 3492.307617, 450.000000, 8159.000000, 8354.000000, 0.000000, 0.000000, 0.000000, 2.000000, 104.000000, 1557623990.391520, 4.000000, 4.000000, 0.000000, 4.000000, 4.000000
89.000000, 0.000000, 3681.025635, 3689.230713, 3994.358887, 3117.435791, 3498.461426, 450.000000, 8163.000000, 8355.000000, 0.000000, 0.000000, 0.000000, 2.000000, 111.900024, 1557623990.399420, 4.000000, 4.000000, 0.000000, 4.000000, 4.000000
90.000000, 0.000000, 3683.076904, 3699.487061, 4003.589600, 3107.179443, 3515.384521, 450.000000, 8164.000000, 8361.000000, 0.000000, 0.000000, 0.000000, 2.000000, 119.700012, 1557623990.407220, 4.000000, 4.000000, 0.000000, 4.000000, 4.000000
91.000000, 0.000000, 3684.102539, 3708.205078, 3996.410156, 3107.692139, 3515.384521, 16165.000000, 8164.000000, 8364.000000, 0.000000, 0.000000, 0.000000, 2.000000, 127.400024, 1557623990.414920, 4.000000, 4.000000, 0.000000, 4.000000, 4.000000
92.000000, 0.000000, 3682.051270, 3720.000000, 4002.563965, 3123.076904, 3501.538330, 450.000000, 8166.000000, 8356.000000, 0.000000, 0.000000, 0.000000, 2.000000, 135.400024, 1557623990.422920, 4.000000, 4.000000, 0.000000, 4.000000, 4.000000
93.000000, 0.000000, 3684.615234, 3730.769043, 4008.205078, 3128.205078, 3518.974365, 450.000000, 8166.000000, 8370.000000, 0.000000, 0.000000, 0.000000, 2.000000, 143.400024, 1557623990.430920, 4.000000, 4.000000, 0.000000, 4.000000, 4.000000
94.000000, 0.000000, 3696.410156, 3733.845947, 4009.743408, 3121.025635, 3546.666504, 450.000000, 8165.000000, 8380.000000, 0.000000, 0.000000, 0.000000, 2.000000, 151.400024, 1557623990.438920, 4.000000, 4.000000, 0.000000, 4.000000, 4.000000
95.000000, 0.000000, 3699.487061, 3737.435791, 4009.230713, 3111.281982, 3536.410156, 16165.000000, 8159.000000, 8381.000000, 0.000000, 0.000000, 0.000000, 2.000000, 159.400024, 1557623990.446920, 4.000000, 4.000000, 0.000000, 4.000000, 4.000000
96.000000, 0.000000, 3700.512695, 3730.256348, 4005.128174, 3125.128174, 3531.794678, 450.000000, 8167.000000, 8369.000000, 0.000000, 0.000000, 0.000000, 2.000000, 167.099976, 1557623990.454620, 4.000000, 4.000000, 0.000000, 4.000000, 4.000000
97.000000, 0.000000, 3717.948730, 3733.333252, 4011.794678, 3159.487061, 3557.435791, 450.000000, 8161.000000, 8368.000000, 0.000000, 0.000000, 0.000000, 2.000000, 174.900024, 1557623990.462420, 4.000000, 4.000000, 0.000000, 4.000000, 4.000000
98.000000, 0.000000, 3727.179443, 3754.358887, 4002.563965, 3160.000000, 3561.538330, 450.000000, 8156.000000, 8373.000000, 0.000000, 0.000000, 0.000000, 2.000000, 182.700012, 1557623990.470220, 4.000000, 4.000000, 0.000000, 4.000000, 4.000000
99.000000, 0.000000, 3728.717773, 3746.666504, 4004.102539, 3146.666504, 3543.589600, 16165.000000, 8160.000000, 8359.000000, 0.000000, 0.000000, 0.000000, 2.000000, 190.599976, 1557623990.478120, 4.000000, 4.000000, 0.000000, 4.000000, 4.000000
100.000000, 0.000000, 3744.615234, 3725.640869, 4015.384521, 3158.461426, 3542.563965, 450.000000, 8159.000000, 8356.000000, 0.000000, 0.000000, 0.000000, 2.000000, 198.500000, 1557623990.486020, 4.000000, 4.000000, 0.000000, 4.000000, 4.000000
101.000000, 0.000000, 3746.666504, 3740.512695, 3994.871582, 3151.281982, 3546.153809, 450.000000, 8158.000000, 8357.000000, 0.000000, 0.000000, 0.000000, 2.000000, 206.400024, 1557623990.493920, 4.000000, 4.000000, 0.000000, 4.000000, 4.000000
102.000000, 0.000000, 3733.333252, 3762.563965, 3996.410156, 3140.000000, 3550.256348, 450.000000, 8163.000000, 8354.000000, 0.000000, 0.000000, 0.000000, 2.000000, 214.400024, 1557623990.501920, 4.000000, 4.000000, 0.000000, 4.000000, 4.000000
103.000000, 0.000000, 3740.512695, 3751.281982, 4013.845947, 3172.307617, 3567.692139, 16165.000000, 8165.000000, 8355.000000, 0.000000, 0.000000, 0.000000, 2.000000, 222.400024, 1557623990.509920, 4.000000, 4.000000, 0.000000, 4.000000, 4.000000
104.000000, 0.000000, 3761.025635, 3753.333252, 4016.410156, 3186.153809, 3577.435791, 450.000000, 8164.000000, 8356.000000, 0.000000, 0.000000, 0.000000, 2.000000, 230.200012, 1557623990.517720, 4.000000, 4.000000, 0.000000, 4.000000, 4.000000
105.000000, 0.000000, 3764.615234, 3775.384521, 4023.589600, 3160.512695, 3564.615234, 450.000000, 8167.000000, 8347.000000, 0.000000, 0.000000, 0.000000, 2.000000, 238.000000, 1557623990.525520, 4.000000, 4.000000, 0.000000, 4.000000, 4.000000
106.000000, 0.000000, 3765.640869, 3768.717773, 4023.589600, 3179.487061, 3555.897461, 450.000000, 8169.000000, 8343.000000, 0.000000, 0.000000, 0.000000, 2.000000, 245.700012, 1557623990.533220, 4.000000, 4.000000, 0.000000, 4.000000, 4.000000
107.000000, 0.000000, 3776.923096, 3756.410156, 4029.230713, 3222.563965, 3573.333252, 16165.000000, 8160.000000, 8347.000000, 0.000000, 0.000000, 0.000000, 2.000000, 253.500000, 1557623990.541020, 4.000000, 4.000000, 0.000000, 4.000000, 4.000000
108.000000, 0.000000, 3772.307617, 3760.512695, 4022.051270, 3199.487061, 3576.923096, 450.000000, 8169.000000, 8345.000000, 0.000000, 0.000000, 0.000000, 2.000000, 261.400024, 1557623990.548920, 4.000000, 4.000000, 0.000000, 4.000000, 4.000000
109.000000, 0.000000, 3765.640869, 3773.333252, 3997.948730, 3160.512695, 3552.307617, 450.000000, 8169.000000, 8333.000000, 0.000000, 0.000000, 0.000000, 2.000000, 269.400024, 1557623990.556920, 4.000000, 4.000000, 0.000000, 4.000000, 4.000000
110.000000, 0.000000, 3773.845947, 3779.487061, 4005.640869, 3182.051270, 3559.487061, 450.000000, 8171.000000, 8327.000000, 0.000000, 0.000000, 0.000000, 2.000000, 277.400024, 1557623990.564920, 4.000000, 4.000000, 0.000000, 4.000000, 4.000000
111.000000, 0.000000, 3771.794678, 3770.769043, 4017.435791, 3208.717773, 3585.640869, 16165.000000, 8166.000000, 8335.000000, 0.000000, 0.000000, 0.000000, 2.000000, 285.299988, 1557623990.572820, 4.000000, 4.000000, 0.000000, 4.000000, 4.000000
112.000000, 0.000000, 3754.358887, 3751.281982, 4010.256348, 3203.589600, 3563.589600, 450.000000, 8173.000000, 8330.000000, 0.000000, 0.000000, 0.000000, 2.000000, 293.299988, 1557623990.580820, 4.000000, 4.000000, 0.000000, 4.000000, 4.000000
113.000000, 0.000000, 3749.743408, 3742.051270, 4005.640869, 3209.743408, 3526.666504, 450.000000, 8168.000000, 8316.000000, 0.000000, 0.000000, 0.000000, 2.000000, 301.099976, 1557623990.588620, 4.000000, 4.000000, 0.000000, 4.000000, 4.000000
114.000000, 0.000000, 3766.666504, 3757.948730, 4016.410156, 3235.897461, 3535.384521, 450.000000, 8167.000000, 8320.000000, 0.000000, 0.000000, 0.000000, 2.000000, 308.900024, 1557623990.596420, 4.000000, 4.000000, 0.000000, 4.000000, 4.000000
115.000000, 0.000000, 3793.845947, 3789.743408, 4030.769043, 3252.820313, 3563.076904, 16165.000000, 8162.000000, 8331.000000, 0.000000, 0.000000, 0.000000, 2.000000, 316.700012, 1557623990.604220, 4.000000, 4.000000, 0.000000, 4.000000, 4.000000
116.000000, 0.000000, 3824.615234, 3822.051270, 4024.102539, 3264.615234, 3580.000000, 450.000000, 8159.000000, 8328.000000, 0.000000, 0.000000, 0.000000, 2.000000, 324.400024, 1557623990.611920, 4.000000, 4.000000, 0.000000, 4.000000, 4.000000
117.000000, 0.000000, 3834.871582, 3814.358887, 4028.205078, 3274.871826, 3600.512695, 450.000000, 8163.000000, 8326.000000, 0.000000, 0.000000, 0.000000, 2.000000, 332.400024, 1557623990.619920, 4.000000, 4.000000, 0.000000, 4.000000, 4.000000
118.000000, 0.000000, 3820.000000, 3788.205078, 4028.717773, 3266.666504, 3612.820313, 450.000000, 8163.000000, 8325.000000, 0.000000, 0.000000, 0.000000, 2.000000, 340.400024, 1557623990.627920, 4.000000, 4.000000, 0.000000, 4.000000, 4.000000
119.000000, 0.000000, 3812.820313, 3801.538330, 4011.794678, 3259.487061, 3607.692139, 16165.000000, 8168.000000, 8326.000000, 0.000000, 0.000000, 0.000000, 2.000000, 348.400024, 1557623990.635920, 4.000000, 4.000000, 0.000000, 4.000000, 4.000000
120.000000, 0.000000, 3830.256348, 3815.897461, 4020.512695, 3275.897461, 3609.743408, 450.000000, 8156.000000, 8335.000000, 0.000000, 0.000000, 0.000000, 2.000000, 356.299988, 1557623990.643820, 4.000000, 4.000000, 0.000000, 4.000000, 4.000000
121.000000, 0.000000, 3847.692139, 3808.205078, 4026.666504, 3285.128174, 3628.205078, 450.000000, 8152.000000, 8337.000000, 0.000000, 0.000000, 0.000000, 2.000000, 364.099976, 1557623990.651620, 4.000000, 4.000000, 0.000000, 4.000000, 4.000000
122.000000, 0.000000, 3855.384521, 3831.281982, 4022.563965, 3274.358887, 3641.025635, 450.000000, 8154.000000, 8329.000000, 0.000000, 0.000000, 0.000000, 2.000000, 371.900024, 1557623990.659420, 4.000000, 4.000000, 0.000000, 4.000000, 4.000000
123.000000, 0.000000, 3852.307617, 3841.538330, 4008.717773, 3260.000000, 3628.717773, 16165.000000, 8146.000000, 8334.000000, 0.000000, 0.000000, 0.000000, 2.000000, 379.700012, 1557623990.667220, 4.000000, 4.000000, 0.000000, 4.000000, 4.000000
124.000000, 0.000000, 3816.410156, 3776.923096, 3987.692139, 3248.717773, 3598.461426, 450.000000, 8140.000000, 8347.000000, 0.000000, 0.000000, 0.000000, 2.000000, 387.500000, 1557623990.675020, 4.000000, 4.000000, 0.000000, 4.000000, 4.000000
125.000000, 0.000000, 3772.307617, 3737.435791, 3996.923096, 3233.846191, 3576.410156, 450.000000, 8138.000000, 8362.000000, 0.000000, 0.000000, 0.000000, 2.000000, 395.400000, 1557623990.682920, 4.000000, 4.000000, 0.000000, 4.000000, 4.000000
126.000000, 0.000000, 3786.153809, 3757.435791, 4001.025635, 3230.256348, 3580.512695, 450.000000, 8143.000000, 8361.000000, 0.000000, 0.000000, 0.000000, 2.000000, 403.400000, 1557623990.690920, 4.000000, 4.000000, 0.000000, 4.000000, 4.000000
127.000000, 0.000000, 3857.435791, 3775.384521, 4001.538330, 3266.666504, 3618.974365, 16165.000000, 8142.000000, 8368.000000, 0.000000, 0.000000, 0.000000, 2.000000, 411.400000, 1557623990.698920, 4.000000, 4.000000, 0.000000, 4.000000, 4.000000
128.000000, 0.000000, 3908.717773, 3811.281982, 4017.435791, 3314.871826, 3682.051270, 500.000000, 8135.000000, 8379.000000, 0.000000, 0.000000, 0.000000, 2.000000, 419.400002, 1557623990.706920, 4.000000, 4.000000, 0.000000, 4.000000, 4.000000
0.000000, 0.000000, 3926.153809, 3855.897461, 4026.153809, 3334.358887, 3727.179443, 500.000000, 8137.000000, 8382.000000, 0.000000, 0.000000, 0.000000, 2.000000, 427.200001, 1557623990.714720, 4.000000, 4.000000, 0.000000, 4.000000, 4.000000
1.000000, 0.000000, 3932.820313, 3857.948730, 4029.230713, 3336.923096, 3732.820313, 500.000000, 8140.000000, 8385.000000, 0.000000, 0.000000, 0.000000, 2.000000, 434.900002, 1557623990.722420, 4.000000, 4.000000, 0.000000, 4.000000, 4.000000
2.000000, 0.000000, 3915.384521, 3844.102539, 4012.820313, 3331.281982, 3722.563965, 16198.000000, 8141.000000, 8384.000000, 0.000000, 0.000000, 0.000000, 2.000000, 442.700001, 1557623990.730220, 4.000000, 4.000000, 0.000000, 4.000000, 4.000000
3.000000, 0.000000, 3893.845947, 3848.717773, 4003.589600, 3316.410156, 3712.820313, 500.000000, 8141.000000, 8387.000000, 0.000000, 0.000000, 0.000000, 2.000000, 450.500000, 1557623990.738020, 4.000000, 4.000000, 0.000000, 4.000000, 4.000000
4.000000, 0.000000, 3918.461426, 3844.102539, 4021.025635, 3331.281982, 3723.076904, 16180.000000, 8142.000000, 8395.000000, 0.000000, 0.000000, 0.000000, 2.000000, 458.500000, 1557623990.746020, 4.000000, 4.000000, 0.000000, 4.000000, 4.000000
5.000000, 0.000000, 3954.358887, 3853.333252, 4024.102539, 3358.461426, 3742.051270, 500.000000, 8143.000000, 8387.000000, 0.000000, 0.000000, 0.000000, 2.000000, 466.500000, 1557623990.754020, 4.000000, 4.000000, 0.000000, 4.000000, 4.000000
6.000000, 0.000000, 3940.512695, 3880.512695, 4024.102539, 3341.538330, 3735.897461, 2.000000, 8146.000000, 8382.000000, 0.000000, 0.000000, 0.000000, 2.000000, 474.400002, 1557623990.761920, 4.000000, 4.000000, 0.000000, 4.000000, 4.000000
7.000000, 0.000000, 3916.410156, 3881.538330, 4029.230713, 3327.692139, 3734.358887, 500.000000, 8154.000000, 8383.000000, 0.000000, 0.000000, 0.000000, 2.000000, 482.400002, 1557623990.769920, 4.000000, 4.000000, 0.000000, 4.000000, 4.000000
8.000000, 0.000000, 3941.538330, 3888.717773, 4033.845947, 3352.820313, 3763.589600, 500.000000, 8148.000000, 8387.000000, 0.000000, 0.000000, 0.000000, 2.000000, 490.199997, 1557623990.777720, 4.000000, 4.000000, 0.000000, 4.000000, 4.000000
9.000000, 0.000000, 3965.640869, 3891.281982, 4015.897217, 3352.820313, 3754.358887, 16085.000000, 8151.000000, 8381.000000, 0.000000, 0.000000, 0.000000, 2.000000, 498.000000, 1557623990.785520, 4.000000, 4.000000, 0.000000, 4.000000, 4.000000
10.000000, 0.000000, 3928.717773, 3842.051270, 3976.410156, 3318.461426, 3692.307617, 500.000000, 8160.000000, 8370.000000, 0.000000, 0.000000, 0.000000, 2.000000, 505.800003, 1557623990.793320, 4.000000, 4.000000, 0.000000, 4.000000, 4.000000
11.000000, 0.000000, 3875.897461, 3808.205078, 3984.615234, 3296.410156, 3667.692139, 16172.000000, 8155.000000, 8356.000000, 0.000000, 0.000000, 0.000000, 2.000000, 513.600006, 1557623990.801120, 4.000000, 4.000000, 0.000000, 4.000000, 4.000000
12.000000, 0.000000, 3874.871582, 3832.820313, 4008.205078, 3291.794678, 3689.230713, 500.000000, 8154.000000, 8363.000000, 0.000000, 0.000000, 0.000000, 2.000000, 521.399994, 1557623990.808920, 4.000000, 4.000000, 0.000000, 4.000000, 4.000000
13.000000, 0.000000, 3898.974365, 3840.512695, 4008.717773, 3305.128174, 3702.563965, 500.000000, 8155.000000, 8360.000000, 0.000000, 0.000000, 0.000000, 2.000000, 529.399994, 1557623990.816920, 4.000000, 4.000000, 0.000000, 4.000000, 4.000000
14.000000, 0.000000, 3896.923096, 3822.051270, 4009.230713, 3316.410156, 3699.487061, 450.000000, 8160.000000, 8356.000000, 0.000000, 0.000000, 0.000000, 2.000000, 537.399994, 1557623990.824920, 4.000000, 4.000000, 0.000000, 4.000000, 4.000000
15.000000, 0.000000, 3893.333252, 3831.281982, 4008.717773, 3314.871826, 3698.974365, 16172.000000, 8163.000000, 8352.000000, 0.000000, 0.000000, 0.000000, 2.000000, 545.300003, 1557623990.832820, 4.000000, 4.000000, 0.000000, 4.000000, 4.000000
16.000000, 0.000000, 3936.410156, 3854.871582, 4029.743408, 3350.769043, 3736.410156, 0.000000, 8154.000000, 8348.000000, 0.000000, 0.000000, 0.000000, 2.000000, 553.300003, 1557623990.840820, 4.000000, 4.000000, 0.000000, 4.000000, 4.000000
17.000000, 0.000000, 3987.692139, 3884.615234, 4045.128174, 3400.512695, 3790.256348, 0.000000, 8157.000000, 8353.000000, 0.000000, 0.000000, 0.000000, 2.000000, 561.300003, 1557623990.848820, 4.000000, 4.000000, 0.000000, 4.000000, 4.000000
18.000000, 0.000000, 3973.333252, 3892.820313, 4021.538330, 3373.333252, 3773.845947, 0.000000, 8145.000000, 8343.000000, 0.000000, 0.000000, 0.000000, 2.000000, 569.100006, 1557623990.856620, 4.000000, 4.000000, 0.000000, 4.000000, 4.000000
19.000000, 0.000000, 3914.358887, 3847.179443, 3995.897217, 3307.692139, 3703.076904, 0.000000, 8146.000000, 8338.000000, 0.000000, 0.000000, 0.000000, 2.000000, 576.899994, 1557623990.864420, 4.000000, 4.000000, 0.000000, 4.000000, 4.000000
20.000000, 0.000000, 3899.487061, 3827.692139, 3994.358887, 3310.256348, 3697.435791, 0.000000, 8146.000000, 8342.000000, 0.000000, 0.000000, 0.000000, 2.000000, 584.600006, 1557623990.872120, 4.000000, 4.000000, 0.000000, 4.000000, 4.000000
21.000000, 0.000000, 3922.563965, 3854.871582, 4008.717773, 3351.281982, 3740.512695, 0.000000, 8145.000000, 8348.000000, 0.000000, 0.000000, 0.000000, 2.000000, 592.399994, 1557623990.879920, 4.000000, 4.000000, 0.000000, 4.000000, 4.000000
22.000000, 0.000000, 3910.769043, 3835.384521, 3996.410156, 3336.410156, 3729.230713, 0.000000, 8146.000000, 8349.000000, 0.000000, 0.000000, 0.000000, 2.000000, 600.399994, 1557623990.887920, 4.000000, 4.000000, 0.000000, 4.000000, 4.000000
23.000000, 0.000000, 3990.769043, 3901.025635, 4041.025635, 3393.846191, 3802.051270, 0.000000, 8152.000000, 8338.000000, 0.000000, 0.000000, 0.000000, 2.000000, 608.399994, 1557623990.895920, 4.000000, 4.000000, 0.000000, 4.000000, 4.000000
24.000000, 0.000000, 4287.179199, 4194.871582, 4192.820313, 3646.153809, 4085.128174, 0.000000, 8140.000000, 8341.000000, 0.000000, 0.000000, 0.000000, 2.000000, 616.399994, 1557623990.903920, 4.000000, 4.000000, 0.000000, 4.000000, 4.000000
25.000000, 0.000000, 4591.281738, 4493.333008, 4289.743652, 3904.615234, 4373.846191, 0.000000, 8138.000000, 8345.000000, 0.000000, 0.000000, 0.000000, 2.000000, 624.100006, 1557623990.911620, 4.000000, 4.000000, 0.000000, 4.000000, 4.000000
26.000000, 0.000000, 4692.820313, 4599.487305, 4285.127930, 3999.487061, 4495.897461, 0.000000, 8142.000000, 8342.000000, 0.000000, 0.000000, 0.000000, 2.000000, 631.899994, 1557623990.919420, 4.000000, 4.000000, 0.000000, 4.000000, 4.000000
27.000000, 0.000000, 4709.743652, 4636.410156, 4272.820313, 4023.076904, 4537.948730, 0.000000, 8143.000000, 8345.000000, 0.000000, 0.000000, 0.000000, 2.000000, 639.700012, 1557623990.927220, 4.000000, 4.000000, 0.000000, 4.000000, 4.000000
28.000000, 0.000000, 4760.512695, 4682.563965, 4266.666504, 4051.281982, 4568.717773, 0.000000, 8140.000000, 8358.000000, 0.000000, 0.000000, 0.000000, 2.000000, 647.500000, 1557623990.935020, 4.000000, 4.000000, 0.000000, 4.000000, 4.000000
29.000000, 0.000000, 4780.000000, 4682.563965, 4246.153809, 4047.692139, 4566.153809, 0.000000, 8146.000000, 8363.000000, 0.000000, 0.000000, 0.000000, 2.000000, 655.500000, 1557623990.943020, 4.000000, 4.000000, 0.000000, 4.000000, 4.000000
30.000000, 0.000000, 4760.512695, 4672.307617, 4223.076660, 4032.307617, 4567.179199, 0.000000, 8132.000000, 8365.000000, 0.000000, 0.000000, 0.000000, 2.000000, 663.399994, 1557623990.950920, 4.000000, 4.000000, 0.000000, 4.000000, 4.000000
31.000000, 0.000000, 4755.897461, 4671.794922, 4224.615234, 4034.871582, 4575.384277, 0.000000, 8141.000000, 8373.000000, 0.000000, 0.000000, 0.000000, 2.000000, 671.399994, 1557623990.958920, 4.000000, 4.000000, 0.000000, 4.000000, 4.000000
32.000000, 0.000000, 4764.102539, 4657.435547, 4228.717773, 4045.640869, 4570.769043, 0.000000, 8139.000000, 8370.000000, 0.000000, 0.000000, 0.000000, 2.000000, 679.200012, 1557623990.966720, 4.000000, 4.000000, 0.000000, 4.000000, 4.000000
33.000000, 0.000000, 4759.487305, 4657.948730, 4206.153809, 4046.666504, 4566.666504, 0.000000, 8148.000000, 8372.000000, 0.000000, 0.000000, 0.000000, 2.000000, 687.000000, 1557623990.974520, 4.000000, 4.000000, 0.000000, 4.000000, 4.000000
34.000000, 0.000000, 4743.076660, 4659.487305, 4197.436035, 4024.615234, 4554.358887, 0.000000, 8145.000000, 8380.000000, 0.000000, 0.000000, 0.000000, 2.000000, 694.799988, 1557623990.982320, 4.000000, 4.000000, 0.000000, 4.000000, 4.000000
35.000000, 0.000000, 4754.358887, 4655.384277, 4197.436035, 4015.384521, 4549.743652, 0.000000, 8141.000000, 8382.000000, 0.000000, 0.000000, 0.000000, 2.000000, 702.600006, 1557623990.990120, 4.000000, 4.000000, 0.000000, 4.000000, 4.000000
36.000000, 0.000000, 4773.846191, 4656.410156, 4197.436035, 4036.923096, 4560.512695, 0.000000, 8144.000000, 8373.000000, 0.000000, 0.000000, 0.000000, 2.000000, 710.600006, 1557623990.998120, 4.000000, 4.000000, 0.000000, 4.000000, 4.000000
37.000000, 0.000000, 4755.897461, 4651.794922, 4200.000000, 4046.666504, 4558.461426, 0.000000, 8143.000000, 8375.000000, 0.000000, 0.000000, 0.000000, 2.000000, 718.600006, 1557623991.006120, 4.000000, 4.000000, 0.000000, 4.000000, 4.000000
38.000000, 0.000000, 4725.127930, 4649.743652, 4189.230469, 4027.179443, 4542.563965, 0.000000, 8143.000000, 8386.000000, 0.000000, 0.000000, 0.000000, 2.000000, 726.500000, 1557623991.014020, 4.000000, 4.000000, 0.000000, 4.000000, 4.000000
39.000000, 0.000000, 4735.384277, 4654.358887, 4193.333008, 4026.666504, 4544.615234, 0.000000, 8147.000000, 8387.000000, 0.000000, 0.000000, 0.000000, 2.000000, 734.399994, 1557623991.021920, 4.000000, 4.000000, 0.000000, 4.000000, 4.000000
40.000000, 0.000000, 4751.281738, 4655.384277, 4195.897461, 4044.102539, 4555.897461, 0.000000, 8147.000000, 8377.000000, 0.000000, 0.000000, 0.000000, 2.000000, 742.399994, 1557623991.029920, 4.000000, 4.000000, 0.000000, 4.000000, 4.000000
41.000000, 0.000000, 4736.922852, 4653.846191, 4191.794922, 4039.487061, 4552.307617, 0.000000, 8148.000000, 8380.000000, 0.000000, 0.000000, 0.000000, 2.000000, 750.200012, 1557623991.037720, 4.000000, 4.000000, 0.000000, 4.000000, 4.000000
42.000000, 0.000000, 4728.717773, 4649.743652, 4199.487305, 4027.179443, 4550.256348, 0.000000, 8144.000000, 8378.000000, 0.000000, 0.000000, 0.000000, 2.000000, 758.000000, 1557623991.045520, 4.000000, 4.000000, 0.000000, 4.000000, 4.000000
43.000000, 0.000000, 4746.153809, 4629.230469, 4185.127930, 4023.589600, 4536.410156, 0.000000, 8142.000000, 8375.000000, 0.000000, 0.000000, 0.000000, 2.000000, 765.799988, 1557623991.053320, 4.000000, 4.000000, 0.000000, 4.000000, 4.000000
44.000000, 0.000000, 4738.974121, 4609.743652, 4169.230469, 4008.205078, 4506.153809, 0.000000, 8147.000000, 8377.000000, 0.000000, 0.000000, 0.000000, 2.000000, 773.500000, 1557623991.061020, 4.000000, 4.000000, 0.000000, 4.000000, 4.000000
45.000000, 0.000000, 4696.922852, 4607.692383, 4169.230469, 4002.563965, 4505.127930, 0.000000, 8143.000000, 8370.000000, 0.000000, 0.000000, 0.000000, 2.000000, 781.500000, 1557623991.069020, 4.000000, 4.000000, 0.000000, 4.000000, 4.000000
46.000000, 0.000000, 4692.307617, 4602.051270, 4173.846191, 4026.666504, 4527.692383, 0.000000, 8148.000000, 8361.000000, 0.000000, 0.000000, 0.000000, 2.000000, 789.399994, 1557623991.076920, 4.000000, 4.000000, 0.000000, 4.000000, 4.000000
47.000000, 0.000000, 4718.974121, 4607.179199, 4169.743652, 4028.205078, 4515.897461, 0.000000, 8144.000000, 8363.000000, 0.000000, 0.000000, 0.000000, 2.000000, 797.399994, 1557623991.084920, 4.000000, 4.000000, 0.000000, 4.000000, 4.000000
48.000000, 0.000000, 4710.256348, 4600.512695, 4160.512695, 4009.230713, 4488.717773, 0.000000, 8144.000000, 8365.000000, 0.000000, 0.000000, 0.000000, 2.000000, 805.399994, 1557623991.092920, 4.000000, 4.000000, 0.000000, 4.000000, 4.000000
49.000000, 0.000000, 4693.333008, 4571.794922, 4174.871582, 4015.897217, 4488.717773, 0.000000, 8151.000000, 8357.000000, 0.000000, 0.000000, 0.000000, 2.000000, 813.299988, 1557623991.100820, 4.000000, 4.000000, 0.000000, 4.000000, 4.000000
50.000000, 0.000000, 4703.589844, 4571.281738, 4174.871582, 4021.025635, 4489.230469, 0.000000, 8151.000000, 8349.000000, 0.000000, 0.000000, 0.000000, 2.000000, 821.100006, 1557623991.108620, 4.000000, 4.000000, 0.000000, 4.000000, 4.000000
51.000000, 0.000000, 4696.922852, 4585.641113, 4164.102539, 4008.717773, 4481.025391, 0.000000, 8148.000000, 8354.000000, 0.000000, 0.000000, 0.000000, 2.000000, 828.899994, 1557623991.116420, 4.000000, 4.000000, 0.000000, 4.000000, 4.000000
52.000000, 0.000000, 4669.743652, 4562.051270, 4173.846191, 4011.281982, 4471.794922, 0.000000, 8150.000000, 8353.000000, 0.000000, 0.000000, 0.000000, 2.000000, 836.700012, 1557623991.124220, 4.000000, 4.000000, 0.000000, 4.000000, 4.000000
53.000000, 0.000000, 4656.410156, 4533.333008, 4163.589844, 4008.205078, 4451.281738, 0.000000, 8150.000000, 8340.000000, 0.000000, 0.000000, 0.000000, 2.000000, 844.500000, 1557623991.132020, 4.000000, 4.000000, 0.000000, 4.000000, 4.000000
54.000000, 0.000000, 4649.230469, 4541.538574, 4160.000000, 3997.948730, 4437.948730, 0.000000, 8153.000000, 8344.000000, 0.000000, 0.000000, 0.000000, 2.000000, 852.399994, 1557623991.139920, 4.000000, 4.000000, 0.000000, 4.000000, 4.000000
55.000000, 0.000000, 4653.846191, 4562.051270, 4168.717773, 4012.820313, 4443.589844, 0.000000, 8156.000000, 8348.000000, 0.000000, 0.000000, 0.000000, 2.000000, 860.399994, 1557623991.147920, 4.000000, 4.000000, 0.000000, 4.000000, 4.000000
56.000000, 0.000000, 4657.435547, 4562.563965, 4166.666504, 4013.333252, 4438.974121, 0.000000, 8153.000000, 8346.000000, 0.000000, 0.000000, 0.000000, 2.000000, 868.399994, 1557623991.155920, 4.000000, 4.000000, 0.000000, 4.000000, 4.000000
57.000000, 0.000000, 4638.974121, 4545.127930, 4173.846191, 3984.102539, 4417.948730, 0.000000, 8151.000000, 8339.000000, 0.000000, 0.000000, 0.000000, 2.000000, 876.399994, 1557623991.163920, 4.000000, 4.000000, 0.000000, 4.000000, 4.000000
58.000000, 0.000000, 4636.410156, 4522.051270, 4169.230469, 3989.743408, 4404.615234, 0.000000, 8149.000000, 8344.000000, 0.000000, 0.000000, 0.000000, 2.000000, 884.399994, 1557623991.171920, 4.000000, 4.000000, 0.000000, 4.000000, 4.000000
59.000000, 0.000000, 4652.820313, 4523.589844, 4157.948730, 4013.845947, 4402.051270, 0.000000, 8156.000000, 8339.000000, 0.000000, 0.000000, 0.000000, 2.000000, 892.099976, 1557623991.179620, 4.000000, 4.000000, 0.000000, 4.000000, 4.000000
60.000000, 0.000000, 4643.076660, 4529.743652, 4152.820313, 3994.871582, 4395.384277, 0.000000, 8150.000000, 8342.000000, 0.000000, 0.000000, 0.000000, 2.000000, 899.900024, 1557623991.187420, 4.000000, 4.000000, 0.000000, 4.000000, 4.000000
61.000000, 0.000000, 4613.846191, 4501.025391, 4148.205078, 3970.769043, 4366.153809, 0.000000, 8149.000000, 8354.000000, 0.000000, 0.000000, 0.000000, 2.000000, 907.799988, 1557623991.195320, 4.000000, 4.000000, 0.000000, 4.000000, 4.000000
62.000000, 0.000000, 4579.487305, 4461.538574, 4152.307617, 3964.615234, 4330.256348, 0.000000, 8155.000000, 8342.000000, 0.000000, 0.000000, 0.000000, 2.000000, 915.799988, 1557623991.203320, 4.000000, 4.000000, 0.000000, 4.000000, 4.000000
63.000000, 0.000000, 4542.051270, 4446.153809, 4146.153809, 3954.871582, 4318.461426, 0.000000, 8149.000000, 8340.000000, 0.000000, 0.000000, 0.000000, 2.000000, 923.500000, 1557623991.211020, 4.000000, 4.000000, 0.000000, 4.000000, 4.000000
64.000000, 0.000000, 4546.666504, 4447.179199, 4146.666504, 3953.333252, 4321.025391, 500.000000, 8148.000000, 8349.000000, 0.000000, 0.000000, 0.000000, 2.000000, 931.500000, 1557623991.219020, 4.000000, 4.000000, 0.000000, 4.000000, 4.000000
65.000000, 0.000000, 4587.692383, 4466.153809, 4153.333008, 3965.640869, 4327.179199, 500.000000, 8148.000000, 8349.000000, 0.000000, 0.000000, 0.000000, 2.000000, 939.500000, 1557623991.227020, 4.000000, 4.000000, 0.000000, 4.000000, 4.000000
66.000000, 0.000000, 4599.487305, 4497.948730, 4149.743652, 3971.794678, 4340.000000, 16170.000000, 8154.000000, 8338.000000, 0.000000, 0.000000, 0.000000, 2.000000, 947.500000, 1557623991.235020, 4.000000, 4.000000, 0.000000, 4.000000, 4.000000
67.000000, 0.000000, 4569.743652, 4482.051270, 4151.794922, 3969.743408, 4333.333008, 500.000000, 8150.000000, 8334.000000, 0.000000, 0.000000, 0.000000, 2.000000, 955.299988, 1557623991.242820, 4.000000, 4.000000, 0.000000, 4.000000, 4.000000
68.000000, 0.000000, 4542.051270, 4434.358887, 4141.025391, 3957.435791, 4295.897461, 16170.000000, 8151.000000, 8332.000000, 0.000000, 0.000000, 0.000000, 2.000000, 963.000000, 1557623991.250520, 4.000000, 4.000000, 0.000000, 4.000000, 4.000000
69.000000, 0.000000, 4538.461426, 4441.025391, 4134.358887, 3936.410156, 4274.871582, 500.000000, 8148.000000, 8339.000000, 0.000000, 0.000000, 0.000000, 2.000000, 970.799988, 1557623991.258320, 4.000000, 4.000000, 0.000000, 4.000000, 4.000000
70.000000, 0.000000, 4535.384277, 4472.820313, 4148.717773, 3927.692139, 4283.589844, 11.000000, 8147.000000, 8329.000000, 0.000000, 0.000000, 0.000000, 2.000000, 978.599976, 1557623991.266120, 4.000000, 4.000000, 0.000000, 4.000000, 4.000000
71.000000, 0.000000, 4524.615234, 4467.692383, 4156.410156, 3927.692139, 4285.641113, 500.000000, 8150.000000, 8342.000000, 0.000000, 0.000000, 0.000000, 2.000000, 986.500000, 1557623991.274020, 4.000000, 4.000000, 0.000000, 4.000000, 4.000000
72.000000, 0.000000, 4518.461426, 4452.307617, 4160.512695, 3931.794678, 4274.358887, 500.000000, 8156.000000, 8339.000000, 0.000000, 0.000000, 0.000000, 2.000000, 994.500000, 1557623991.282020, 4.000000, 4.000000, 0.000000, 4.000000, 4.000000
73.000000, 0.000000, 4524.615234, 4458.461426, 4151.281738, 3925.640869, 4264.615234, 16080.000000, 8148.000000, 8336.000000, 0.000000, 0.000000, 0.000000, 3.000000, 2.400024, 1557623991.289920, 4.000000, 4.000000, 0.000000, 4.000000, 4.000000
74.000000, 0.000000, 4534.358887, 4459.487305, 4140.512695, 3906.666504, 4255.384277, 500.000000, 8148.000000, 8342.000000, 0.000000, 0.000000, 0.000000, 3.000000, 10.400024, 1557623991.297920, 4.000000, 4.000000, 0.000000, 4.000000, 4.000000
75.000000, 0.000000, 4544.102539, 4450.256348, 4146.666504, 3924.615234, 4266.153809, 16173.000000, 8152.000000, 8338.000000, 0.000000, 0.000000, 0.000000, 3.000000, 18.400024, 1557623991.305920, 4.000000, 4.000000, 0.000000, 4.000000, 4.000000
76.000000, 0.000000, 4537.948730, 4446.666504, 4138.461426, 3953.845947, 4290.256348, 500.000000, 8157.000000, 8346.000000, 0.000000, 0.000000, 0.000000, 3.000000, 26.200012, 1557623991.313720, 4.000000, 4.000000, 0.000000, 4.000000, 4.000000
77.000000, 0.000000, 4522.051270, 4444.615234, 4135.384277, 3936.923096, 4290.256348, 500.000000, 8147.000000, 8357.000000, 0.000000, 0.000000, 0.000000, 3.000000, 34.000000, 1557623991.321520, 4.000000, 4.000000, 0.000000, 4.000000, 4.000000
78.000000, 0.000000, 4524.102539, 4444.615234, 4140.512695, 3917.948730, 4280.000000, 450.000000, 8149.000000, 8364.000000, 0.000000, 0.000000, 0.000000, 3.000000, 41.799988, 1557623991.329320, 4.000000, 4.000000, 0.000000, 4.000000, 4.000000
79.000000, 0.000000, 4528.717773, 4444.615234, 4149.230469, 3936.923096, 4293.846191, 16173.000000, 8159.000000, 8356.000000, 0.000000, 0.000000, 0.000000, 3.000000, 49.700012, 1557623991.337220, 4.000000, 4.000000, 0.000000, 4.000000, 4.000000
80.000000, 0.000000, 4521.538574, 4440.000000, 4152.307617, 3947.179443, 4304.615234, 450.000000, 8150.000000, 8361.000000, 0.000000, 0.000000, 0.000000, 3.000000, 57.599976, 1557623991.345120, 4.000000, 4.000000, 0.000000, 4.000000, 4.000000
81.000000, 0.000000, 4520.000000, 4437.948730, 4138.974121, 3938.974365, 4290.769043, 450.000000, 8158.000000, 8368.000000, 0.000000, 0.000000, 0.000000, 3.000000, 65.500000, 1557623991.353020, 4.000000, 4.000000, 0.000000, 4.000000, 4.000000
82.000000, 0.000000, 4513.333008, 4434.871582, 4151.281738, 3928.717773, 4277.948730, 450.000000, 8159.000000, 8364.000000, 0.000000, 0.000000, 0.000000, 3.000000, 73.500000, 1557623991.361020, 4.000000, 4.000000, 0.000000, 4.000000, 4.000000
83.000000, 0.000000, 4492.307617, 4423.589844, 4155.384277, 3910.256348, 4274.358887, 16173.000000, 8157.000000, 8358.000000, 0.000000, 0.000000, 0.000000, 3.000000, 81.400024, 1557623991.368920, 4.000000, 4.000000, 0.000000, 4.000000, 4.000000
84.000000, 0.000000, 4485.127930, 4416.410156, 4145.127930, 3913.333252, 4283.589844, 450.000000, 8165.000000, 8355.000000, 0.000000, 0.000000, 0.000000, 3.000000, 89.200012, 1557623991.376720, 4.000000, 4.000000, 0.000000, 4.000000, 4.000000
85.000000, 0.000000, 4497.435547, 4427.179199, 4148.717773, 3919.487061, 4285.127930, 450.000000, 8167.000000, 8354.000000, 0.000000, 0.000000, 0.000000, 3.000000, 97.000000, 1557623991.384520, 4.000000, 4.000000, 0.000000, 4.000000, 4.000000
86.000000, 0.000000, 4492.820313, 4431.281738, 4138.974121, 3904.102539, 4268.205078, 450.000000, 8174.000000, 8357.000000, 0.000000, 0.000000, 0.000000, 3.000000, 104.799988, 1557623991.392320, 4.000000, 4.000000, 0.000000, 4.000000, 4.000000
87.000000, 0.000000, 4471.794922, 4412.820313, 4134.358887, 3906.153809, 4261.025391, 16173.000000, 8174.000000, 8371.000000, 0.000000, 0.000000, 0.000000, 3.000000, 112.700012, 1557623991.400220, 4.000000, 4.000000, 0.000000, 4.000000, 4.000000
88.000000, 0.000000, 4476.922852, 4416.410156, 4133.333008, 3911.281982, 4256.922852, 450.000000, 8172.000000, 8359.000000, 0.000000, 0.000000, 0.000000, 3.000000, 120.599976, 1557623991.408120, 4.000000, 4.000000, 0.000000, 4.000000, 4.000000
89.000000, 0.000000, 4492.820313, 4446.153809, 4134.871582, 3892.820313, 4249.743652, 450.000000, 8172.000000, 8354.000000, 0.000000, 0.000000, 0.000000, 3.000000, 128.599976, 1557623991.416120, 4.000000, 4.000000, 0.000000, 4.000000, 4.000000
90.000000, 0.000000, 4486.153809, 4451.281738, 4151.794922, 3892.307617, 4251.794922, 450.000000, 8170.000000, 8361.000000, 0.000000, 0.000000, 0.000000, 3.000000, 136.500000, 1557623991.424020, 4.000000, 4.000000, 0.000000, 4.000000, 4.000000
91.000000, 0.000000, 4476.410156, 4431.281738, 4145.641113, 3921.025635, 4253.846191, 16173.000000, 8171.000000, 8356.000000, 0.000000, 0.000000, 0.000000, 3.000000, 144.500000, 1557623991.432020, 4.000000, 4.000000, 0.000000, 4.000000, 4.000000
92.000000, 0.000000, 4471.794922, 4425.641113, 4142.051270, 3930.256348, 4249.743652, 450.000000, 8164.000000, 8345.000000, 0.000000, 0.000000, 0.000000, 3.000000, 152.200012, 1557623991.439720, 4.000000, 4.000000, 0.000000, 4.000000, 4.000000
93.000000, 0.000000, 4463.589844, 4430.769043, 4151.281738, 3912.820313, 4255.897461, 450.000000, 8172.000000, 8340.000000, 0.000000, 0.000000, 0.000000, 3.000000, 160.000000, 1557623991.447520, 4.000000, 4.000000, 0.000000, 4.000000, 4.000000
94.000000, 0.000000, 4458.974121, 4428.205078, 4148.717773, 3909.743408, 4265.641113, 450.000000, 8171.000000, 8338.000000, 0.000000, 0.000000, 0.000000, 3.000000, 167.799988, 1557623991.455320, 4.000000, 4.000000, 0.000000, 4.000000, 4.000000
95.000000, 0.000000, 4469.743652, 4433.846191, 4142.563965, 3913.845947, 4267.179199, 16173.000000, 8167.000000, 8350.000000, 0.000000, 0.000000, 0.000000, 3.000000, 175.799988, 1557623991.463320, 4.000000, 4.000000, 0.000000, 4.000000, 4.000000
96.000000, 0.000000, 4474.358887, 4430.256348, 4128.205078, 3898.974365, 4268.205078, 450.000000, 8166.000000, 8343.000000, 0.000000, 0.000000, 0.000000, 3.000000, 183.599976, 1557623991.471120, 4.000000, 4.000000, 0.000000, 4.000000, 4.000000
97.000000, 0.000000, 4466.666504, 4412.307617, 4131.794922, 3888.717773, 4257.436035, 450.000000, 8161.000000, 8344.000000, 0.000000, 0.000000, 0.000000, 3.000000, 191.400024, 1557623991.478920, 4.000000, 4.000000, 0.000000, 4.000000, 4.000000
98.000000, 0.000000, 4456.410156, 4408.205078, 4146.153809, 3895.384521, 4253.333008, 450.000000, 8154.000000, 8349.000000, 0.000000, 0.000000, 0.000000, 3.000000, 199.400024, 1557623991.486920, 4.000000, 4.000000, 0.000000, 4.000000, 4.000000
99.000000, 0.000000, 4455.897461, 4411.794922, 4138.461426, 3894.871582, 4275.384277, 16173.000000, 8165.000000, 8348.000000, 0.000000, 0.000000, 0.000000, 3.000000, 207.400024, 1557623991.494920, 4.000000, 4.000000, 0.000000, 4.000000, 4.000000
100.000000, 0.000000, 4465.641113, 4402.051270, 4136.922852, 3890.769043, 4282.563965, 450.000000, 8160.000000, 8350.000000, 0.000000, 0.000000, 0.000000, 3.000000, 215.400024, 1557623991.502920, 4.000000, 4.000000, 0.000000, 4.000000, 4.000000
101.000000, 0.000000, 4460.512695, 4397.948730, 4143.076660, 3886.666504, 4252.820313, 450.000000, 8151.000000, 8342.000000, 0.000000, 0.000000, 0.000000, 3.000000, 223.200012, 1557623991.510720, 4.000000, 4.000000, 0.000000, 4.000000, 4.000000
102.000000, 0.000000, 4456.922852, 4403.589844, 4143.076660, 3877.948730, 4226.666504, 450.000000, 8147.000000, 8331.000000, 0.000000, 0.000000, 0.000000, 3.000000, 230.900024, 1557623991.518420, 4.000000, 4.000000, 0.000000, 4.000000, 4.000000
103.000000, 0.000000, 4462.051270, 4399.487305, 4139.487305, 3886.153809, 4236.922852, 16173.000000, 8146.000000, 8317.000000, 0.000000, 0.000000, 0.000000, 3.000000, 238.700012, 1557623991.526220, 4.000000, 4.000000, 0.000000, 4.000000, 4.000000
104.000000, 0.000000, 4448.205078, 4404.102539, 4138.461426, 3896.410156, 4257.948730, 450.000000, 8140.000000, 8323.000000, 0.000000, 0.000000, 0.000000, 3.000000, 246.500000, 1557623991.534020, 4.000000, 4.000000, 0.000000, 4.000000, 4.000000
105.000000, 0.000000, 4433.846191, 4399.487305, 4139.487305, 3881.538330, 4242.051270, 450.000000, 8144.000000, 8314.000000, 0.000000, 0.000000, 0.000000, 3.000000, 254.500000, 1557623991.542020, 4.000000, 4.000000, 0.000000, 4.000000, 4.000000
106.000000, 0.000000, 4446.666504, 4363.589844, 4117.436035, 3867.179443, 4206.153809, 450.000000, 8142.000000, 8307.000000, 0.000000, 0.000000, 0.000000, 3.000000, 262.500000, 1557623991.550020, 4.000000, 4.000000, 0.000000, 4.000000, 4.000000
107.000000, 0.000000, 4457.948730, 4351.281738, 4116.922852, 3875.897461, 4210.256348, 16173.000000, 8138.000000, 8319.000000, 0.000000, 0.000000, 0.000000, 3.000000, 270.400024, 1557623991.557920, 4.000000, 4.000000, 0.000000, 4.000000, 4.000000
108.000000, 0.000000, 4449.743652, 4375.384277, 4143.076660, 3887.179443, 4238.974121, 450.000000, 8140.000000, 8313.000000, 0.000000, 0.000000, 0.000000, 3.000000, 278.200012, 1557623991.565720, 4.000000, 4.000000, 0.000000, 4.000000, 4.000000
109.000000, 0.000000, 4435.897461, 4388.205078, 4134.871582, 3881.025635, 4242.563965, 450.000000, 8140.000000, 8299.000000, 0.000000, 0.000000, 0.000000, 3.000000, 286.000000, 1557623991.573520, 4.000000, 4.000000, 0.000000, 4.000000, 4.000000
110.000000, 0.000000, 4413.333008, 4378.461426, 4129.230469, 3866.153809, 4223.076660, 450.000000, 8142.000000, 8294.000000, 0.000000, 0.000000, 0.000000, 3.000000, 293.799988, 1557623991.581320, 4.000000, 4.000000, 0.000000, 4.000000, 4.000000
111.000000, 0.000000, 4389.743652, 4360.512695, 4131.281738, 3854.358887, 4190.256348, 16173.000000, 8143.000000, 8301.000000, 0.000000, 0.000000, 0.000000, 3.000000, 301.500000, 1557623991.589020, 4.000000, 4.000000, 0.000000, 4.000000, 4.000000
112.000000, 0.000000, 4374.358887, 4342.563965, 4124.615234, 3850.256348, 4168.205078, 450.000000, 8153.000000, 8308.000000, 0.000000, 0.000000, 0.000000, 3.000000, 309.400024, 1557623991.596920, 4.000000, 4.000000, 0.000000, 4.000000, 4.000000
113.000000, 0.000000, 4372.820313, 4343.076660, 4128.717773, 3850.256348, 4179.487305, 450.000000, 8149.000000, 8309.000000, 0.000000, 0.000000, 0.000000, 3.000000, 317.400024, 1557623991.604920, 4.000000, 4.000000, 0.000000, 4.000000, 4.000000
114.000000, 0.000000, 4386.153809, 4360.000000, 4134.871582, 3863.076904, 4191.794922, 450.000000, 8148.000000, 8319.000000, 0.000000, 0.000000, 0.000000, 3.000000, 325.400024, 1557623991.612920, 4.000000, 4.000000, 0.000000, 4.000000, 4.000000
115.000000, 0.000000, 4381.025391, 4355.384277, 4137.436035, 3864.615234, 4162.051270, 16173.000000, 8156.000000, 8317.000000, 0.000000, 0.000000, 0.000000, 3.000000, 333.400024, 1557623991.620920, 4.000000, 4.000000, 0.000000, 4.000000, 4.000000
116.000000, 0.000000, 4359.487305, 4346.153809, 4128.717773, 3850.769043, 4136.922852, 450.000000, 8155.000000, 8317.000000, 0.000000, 0.000000, 0.000000, 3.000000, 341.299988, 1557623991.628820, 4.000000, 4.000000, 0.000000, 4.000000, 4.000000
117.000000, 0.000000, 4368.717773, 4357.948730, 4133.333008, 3869.230713, 4174.358887, 450.000000, 8152.000000, 8327.000000, 0.000000, 0.000000, 0.000000, 3.000000, 349.099976, 1557623991.636620, 4.000000, 4.000000, 0.000000, 4.000000, 4.000000
118.000000, 0.000000, 4390.256348, 4368.717773, 4142.563965, 3889.743408, 4212.820313, 450.000000, 8156.000000, 8334.000000, 0.000000, 0.000000, 0.000000, 3.000000, 356.900024, 1557623991.644420, 4.000000, 4.000000, 0.000000, 4.000000, 4.000000
119.000000, 0.000000, 4374.358887, 4368.717773, 4126.153809, 3853.845947, 4192.307617, 16173.000000, 8159.000000, 8319.000000, 0.000000, 0.000000, 0.000000, 3.000000, 364.700012, 1557623991.652220, 4.000000, 4.000000, 0.000000, 4.000000, 4.000000
120.000000, 0.000000, 4356.410156, 4367.179199, 4125.127930, 3822.051270, 4161.025391, 450.000000, 8153.000000, 8330.000000, 0.000000, 0.000000, 0.000000, 3.000000, 372.700012, 1557623991.660220, 4.000000, 4.000000, 0.000000, 4.000000, 4.000000
121.000000, 0.000000, 4362.051270, 4351.281738, 4127.692383, 3839.487061, 4156.922852, 450.000000, 8149.000000, 8337.000000, 0.000000, 0.000000, 0.000000, 3.000000, 380.600000, 1557623991.668120, 4.000000, 4.000000, 0.000000, 4.000000, 4.000000
122.000000, 0.000000, 4348.717773, 4321.538574, 4113.333008, 3842.051270, 4147.692383, 450.000000, 8152.000000, 8330.000000, 0.000000, 0.000000, 0.000000, 3.000000, 388.600000, 1557623991.676120, 4.000000, 4.000000, 0.000000, 4.000000, 4.000000
123.000000, 0.000000, 4324.615234, 4328.717773, 4115.384277, 3815.384521, 4133.846191, 16173.000000, 8152.000000, 8332.000000, 0.000000, 0.000000, 0.000000, 3.000000, 396.600000, 1557623991.684120, 4.000000, 4.000000, 0.000000, 4.000000, 4.000000
124.000000, 0.000000, 4327.692383, 4358.461426, 4121.025391, 3808.205078, 4133.846191, 450.000000, 8149.000000, 8337.000000, 0.000000, 0.000000, 0.000000, 3.000000, 404.600000, 1557623991.692120, 4.000000, 4.000000, 0.000000, 4.000000, 4.000000
125.000000, 0.000000, 4338.461426, 4348.205078, 4126.153809, 3825.640869, 4137.948730, 450.000000, 8152.000000, 8340.000000, 0.000000, 0.000000, 0.000000, 3.000000, 412.400002, 1557623991.699920, 4.000000, 4.000000, 0.000000, 4.000000, 4.000000
126.000000, 0.000000, 4328.205078, 4325.641113, 4124.615234, 3840.512695, 4136.410156, 450.000000, 8151.000000, 8340.000000, 0.000000, 0.000000, 0.000000, 3.000000, 420.099998, 1557623991.707620, 4.000000, 4.000000, 0.000000, 4.000000, 4.000000
127.000000, 0.000000, 4315.384277, 4344.102539, 4118.461426, 3835.384521, 4128.205078, 16173.000000, 8148.000000, 8338.000000, 0.000000, 0.000000, 0.000000, 3.000000, 427.900002, 1557623991.715420, 4.000000, 4.000000, 0.000000, 4.000000, 4.000000
128.000000, 0.000000, 4321.538574, 4354.871582, 4131.281738, 3838.461426, 4126.153809, 500.000000, 8154.000000, 8334.000000, 0.000000, 0.000000, 0.000000, 3.000000, 435.799999, 1557623991.723320, 4.000000, 4.000000, 0.000000, 4.000000, 4.000000
0.000000, 0.000000, 4328.717773, 4335.384277, 4126.666504, 3848.205078, 4118.461426, 500.000000, 8153.000000, 8337.000000, 0.000000, 0.000000, 0.000000, 3.000000, 443.799999, 1557623991.731320, 4.000000, 4.000000, 0.000000, 4.000000, 4.000000
1.000000, 0.000000, 4313.333008, 4341.538574, 4118.974121, 3836.923096, 4108.205078, 500.000000, 8154.000000, 8342.000000, 0.000000, 0.000000, 0.000000, 3.000000, 451.599998, 1557623991.739120, 4.000000, 4.000000, 0.000000, 4.000000, 4.000000
2.000000, 0.000000, 4281.025391, 4336.410156, 4118.461426, 3817.435791, 4106.153809, 16173.000000, 8151.000000, 8344.000000, 0.000000, 0.000000, 0.000000, 3.000000, 459.500000, 1557623991.747020, 4.000000, 4.000000, 0.000000, 4.000000, 4.000000
3.000000, 0.000000, 4270.769043, 4287.692383, 4108.205078, 3814.358887, 4097.948730, 500.000000, 8155.000000, 8337.000000, 0.000000, 0.000000, 0.000000, 3.000000, 467.500000, 1557623991.755020, 4.000000, 4.000000, 0.000000, 4.000000, 4.000000
4.000000, 0.000000, 4291.281738, 4289.230469, 4111.281738, 3816.923096, 4093.845947, 16173.000000, 8157.000000, 8339.000000, 0.000000, 0.000000, 0.000000, 3.000000, 475.300003, 1557623991.762820, 4.000000, 4.000000, 0.000000, 4.000000, 4.000000
5.000000, 0.000000, 4304.615234, 4333.846191, 4105.641113, 3811.794678, 4103.076660, 500.000000, 8157.000000, 8351.000000, 0.000000, 0.000000, 0.000000, 3.000000, 483.099998, 1557623991.770620, 4.000000, 4.000000, 0.000000, 4.000000, 4.000000
6.000000, 0.000000, 4295.897461, 4321.025391, 4102.051270, 3813.333252, 4101.025391, 26.000000, 8157.000000, 8351.000000, 0.000000, 0.000000, 0.000000, 3.000000, 490.800003, 1557623991.778320, 4.000000, 4.000000, 0.000000, 4.000000, 4.000000
7.000000, 0.000000, 4283.589844, 4286.666504, 4110.769043, 3826.153809, 4092.307617, 500.000000, 8158.000000, 8346.000000, 0.000000, 0.000000, 0.000000, 3.000000, 498.800003, 1557623991.786320, 4.000000, 4.000000, 0.000000, 4.000000, 4.000000
8.000000, 0.000000, 4277.948730, 4290.769043, 4109.230469, 3829.743408, 4088.205078, 500.000000, 8157.000000, 8358.000000, 0.000000, 0.000000, 0.000000, 3.000000, 506.699997, 1557623991.794220, 4.000000, 4.000000, 0.000000, 4.000000, 4.000000
9.000000, 0.000000, 4267.692383, 4304.102539, 4106.666504, 3818.974365, 4070.769043, 16073.000000, 8157.000000, 8357.000000, 0.000000, 0.000000, 0.000000, 3.000000, 514.500000, 1557623991.802020, 4.000000, 4.000000, 0.000000, 4.000000, 4.000000
10.000000, 0.000000, 4246.666504, 4312.307617, 4109.743652, 3808.717773, 4072.820313, 500.000000, 8158.000000, 8357.000000, 0.000000, 0.000000, 0.000000, 3.000000, 522.500000, 1557623991.810020, 4.000000, 4.000000, 0.000000, 4.000000, 4.000000
11.000000, 0.000000, 4231.794922, 4310.769043, 4121.025391, 3813.845947, 4089.230713, 16195.000000, 8149.000000, 8363.000000, 0.000000, 0.000000, 0.000000, 3.000000, 530.399994, 1557623991.817920, 4.000000, 4.000000, 0.000000, 4.000000, 4.000000
12.000000, 0.000000, 4246.666504, 4295.384277, 4117.436035, 3824.102539, 4060.512695, 500.000000, 8157.000000, 8363.000000, 0.000000, 0.000000, 0.000000, 3.000000, 538.399994, 1557623991.825920, 4.000000, 4.000000, 0.000000, 4.000000, 4.000000
13.000000, 0.000000, 4270.256348, 4290.769043, 4102.051270, 3828.205078, 4038.974365, 500.000000, 8157.000000, 8361.000000, 0.000000, 0.000000, 0.000000, 3.000000, 546.199997, 1557623991.833720, 4.000000, 4.000000, 0.000000, 4.000000, 4.000000
14.000000, 0.000000, 4257.436035, 4296.410156, 4107.692383, 3823.076904, 4071.794678, 450.000000, 8148.000000, 8365.000000, 0.000000, 0.000000, 0.000000, 3.000000, 554.000000, 1557623991.841520, 4.000000, 4.000000, 0.000000, 4.000000, 4.000000
15.000000, 0.000000, 4228.717773, 4296.410156, 4106.153809, 3808.717773, 4082.051270, 16195.000000, 8153.000000, 8365.000000, 0.000000, 0.000000, 0.000000, 3.000000, 561.800003, 1557623991.849320, 4.000000, 4.000000, 0.000000, 4.000000, 4.000000
16.000000, 0.000000, 4231.281738, 4293.333008, 4101.025391, 3802.051270, 4043.076904, 0.000000, 8150.000000, 8360.000000, 0.000000, 0.000000, 0.000000, 3.000000, 569.699997, 1557623991.857220, 4.000000, 4.000000, 0.000000, 4.000000, 4.000000
17.000000, 0.000000, 4241.025391, 4294.871582, 4104.615234, 3801.538330, 4021.538330, 0.000000, 8162.000000, 8356.000000, 0.000000, 0.000000, 0.000000, 3.000000, 577.500000, 1557623991.865020, 4.000000, 4.000000, 0.000000, 4.000000, 4.000000
18.000000, 0.000000, 4230.256348, 4304.615234, 4105.127930, 3801.025635, 4044.615234, 0.000000, 8157.000000, 8368.000000, 0.000000, 0.000000, 0.000000, 3.000000, 585.500000, 1557623991.873020, 4.000000, 4.000000, 0.000000, 4.000000, 4.000000
19.000000, 0.000000, 4225.641113, 4314.358887, 4120.512695, 3792.820313, 4054.358887, 0.000000, 8161.000000, 8361.000000, 0.000000, 0.000000, 0.000000, 3.000000, 593.500000, 1557623991.881020, 4.000000, 4.000000, 0.000000, 4.000000, 4.000000
20.000000, 0.000000, 4230.769043, 4309.743652, 4114.358887, 3784.615234, 4040.000000, 0.000000, 8159.000000, 8349.000000, 0.000000, 0.000000, 0.000000, 3.000000, 601.500000, 1557623991.889020, 4.000000, 4.000000, 0.000000, 4.000000, 4.000000
21.000000, 0.000000, 4230.256348, 4300.512695, 4089.743408, 3799.487061, 4042.563965, 0.000000, 8157.000000, 8364.000000, 0.000000, 0.000000, 0.000000, 3.000000, 609.399994, 1557623991.896920, 4.000000, 4.000000, 0.000000, 4.000000, 4.000000
22.000000, 0.000000, 4233.333008, 4313.846191, 4098.461426, 3808.205078, 4047.179443, 0.000000, 8161.000000, 8354.000000, 0.000000, 0.000000, 0.000000, 3.000000, 617.199997, 1557623991.904720, 4.000000, 4.000000, 0.000000, 4.000000, 4.000000
23.000000, 0.000000, 4230.256348, 4328.717773, 4112.307617, 3792.307617, 4038.974365, 0.000000, 8164.000000, 8351.000000, 0.000000, 0.000000, 0.000000, 3.000000, 625.000000, 1557623991.912520, 4.000000, 4.000000, 0.000000, 4.000000, 4.000000
24.000000, 0.000000, 4214.871582, 4317.436035, 4109.230469, 3787.692139, 4035.897217, 0.000000, 8160.000000, 8353.000000, 0.000000, 0.000000, 0.000000, 3.000000, 632.800003, 1557623991.920320, 4.000000, 4.000000, 0.000000, 4.000000, 4.000000
25.000000, 0.000000, 4216.922852, 4303.589844, 4087.692139, 3798.461426, 4025.640869, 0.000000, 8163.000000, 8350.000000, 0.000000, 0.000000, 0.000000, 3.000000, 640.600006, 1557623991.928120, 4.000000, 4.000000, 0.000000, 4.000000, 4.000000
26.000000, 0.000000, 4231.794922, 4302.051270, 4080.512695, 3799.487061, 4004.102539, 0.000000, 8161.000000, 8347.000000, 0.000000, 0.000000, 0.000000, 3.000000, 648.500000, 1557623991.936020, 4.000000, 4.000000, 0.000000, 4.000000, 4.000000
27.000000, 0.000000, 4222.051270, 4306.153809, 4103.589844, 3794.358887, 4005.128174, 0.000000, 8158.000000, 8350.000000, 0.000000, 0.000000, 0.000000, 3.000000, 656.500000, 1557623991.944020, 4.000000, 4.000000, 0.000000, 4.000000, 4.000000
28.000000, 0.000000, 4197.436035, 4308.205078, 4104.615234, 3792.820313, 4014.358887, 0.000000, 8162.000000, 8356.000000, 0.000000, 0.000000, 0.000000, 3.000000, 664.500000, 1557623991.952020, 4.000000, 4.000000, 0.000000, 4.000000, 4.000000
29.000000, 0.000000, 4189.743652, 4307.179199, 4101.025391, 3786.666504, 4000.512695, 0.000000, 8161.000000, 8348.000000, 0.000000, 0.000000, 0.000000, 3.000000, 672.500000, 1557623991.960020, 4.000000, 4.000000, 0.000000, 4.000000, 4.000000
30.000000, 0.000000, 4186.153809, 4298.461426, 4105.127930, 3786.153809, 3986.153809, 0.000000, 8159.000000, 8339.000000, 0.000000, 0.000000, 0.000000, 3.000000, 680.200012, 1557623991.967720, 4.000000, 4.000000, 0.000000, 4.000000, 4.000000
31.000000, 0.000000, 4176.922852, 4290.256348, 4104.615234, 3800.000000, 3987.692139, 0.000000, 8155.000000, 8354.000000, 0.000000, 0.000000, 0.000000, 3.000000, 688.000000, 1557623991.975520, 4.000000, 4.000000, 0.000000, 4.000000, 4.000000
32.000000, 0.000000, 4161.538574, 4297.436035, 4109.230469, 3804.615234, 3990.769043, 0.000000, 8150.000000, 8356.000000, 0.000000, 0.000000, 0.000000, 3.000000, 695.799988, 1557623991.983320, 4.000000, 4.000000, 0.000000, 4.000000, 4.000000
33.000000, 0.000000, 4146.153809, 4297.948730, 4097.436035, 3784.102539, 3965.128174, 0.000000, 8151.000000, 8342.000000, 0.000000, 0.000000, 0.000000, 3.000000, 703.700012, 1557623991.991220, 4.000000, 4.000000, 0.000000, 4.000000, 4.000000
34.000000, 0.000000, 4147.179199, 4277.948730, 4092.307617, 3777.948730, 3935.384521, 0.000000, 8149.000000, 8344.000000, 0.000000, 0.000000, 0.000000, 3.000000, 711.600006, 1557623991.999120, 4.000000, 4.000000, 0.000000, 4.000000, 4.000000
35.000000, 0.000000, 4163.076660, 4267.692383, 4100.512695, 3803.589600, 3952.307617, 0.000000, 8149.000000, 8350.000000, 0.000000, 0.000000, 0.000000, 3.000000, 719.500000, 1557623992.007020, 4.000000, 4.000000, 0.000000, 4.000000, 4.000000
36.000000, 0.000000, 4174.358887, 4297.436035, 4107.179199, 3817.948730, 3990.769043, 0.000000, 8152.000000, 8352.000000, 0.000000, 0.000000, 0.000000, 3.000000, 727.500000, 1557623992.015020, 4.000000, 4.000000, 0.000000, 4.000000, 4.000000
37.000000, 0.000000, 4181.025391, 4318.461426, 4124.615234, 3813.845947, 4010.256348, 0.000000, 8144.000000, 8346.000000, 0.000000, 0.000000, 0.000000, 3.000000, 735.500000, 1557623992.023020, 4.000000, 4.000000, 0.000000, 4.000000, 4.000000
38.000000, 0.000000, 4186.666504, 4301.025391, 4117.436035, 3815.384521, 4012.820313, 0.000000, 8144.000000, 8350.000000, 0.000000, 0.000000, 0.000000, 3.000000, 743.299988, 1557623992.030820, 4.000000, 4.000000, 0.000000, 4.000000, 4.000000
39.000000, 0.000000, 4188.205078, 4291.794922, 4093.845947, 3797.948730, 3993.333252, 0.000000, 8149.000000, 8348.000000, 0.000000, 0.000000, 0.000000, 3.000000, 751.100006, 1557623992.038620, 4.000000, 4.000000, 0.000000, 4.000000, 4.000000
40.000000, 0.000000, 4185.641113, 4298.974121, 4095.897217, 3774.871582, 3985.640869, 0.000000, 8143.000000, 8346.000000, 0.000000, 0.000000, 0.000000, 3.000000, 758.799988, 1557623992.046320, 4.000000, 4.000000, 0.000000, 4.000000, 4.000000
41.000000, 0.000000, 4186.666504, 4301.025391, 4114.358887, 3797.435791, 4014.871582, 0.000000, 8139.000000, 8349.000000, 0.000000, 0.000000, 0.000000, 3.000000, 766.700012, 1557623992.054220, 4.000000, 4.000000, 0.000000, 4.000000, 4.000000
42.000000, 0.000000, 4184.102539, 4304.102539, 4120.000000, 3809.230713, 4024.615234, 0.000000, 8145.000000, 8336.000000, 0.000000, 0.000000, 0.000000, 3.000000, 774.600006, 1557623992.062120, 4.000000, 4.000000, 0.000000, 4.000000, 4.000000
43.000000, 0.000000, 4185.641113, 4313.846191, 4098.974121, 3777.948730, 4002.563965, 0.000000, 8147.000000, 8339.000000, 0.000000, 0.000000, 0.000000, 3.000000, 782.500000, 1557623992.070020, 4.000000, 4.000000, 0.000000, 4.000000, 4.000000
44.000000, 0.000000, 4207.179199, 4311.794922, 4092.307617, 3788.205078, 3998.461426, 0.000000, 8143.000000, 8347.000000, 0.000000, 0.000000, 0.000000, 3.000000, 790.500000, 1557623992.078020, 4.000000, 4.000000, 0.000000, 4.000000, 4.000000
45.000000, 0.000000, 4225.127930, 4304.102539, 4104.615234, 3827.692139, 4010.769043, 0.000000, 8139.000000, 8354.000000, 0.000000, 0.000000, 0.000000, 3.000000, 798.399994, 1557623992.085920, 4.000000, 4.000000, 0.000000, 4.000000, 4.000000
46.000000, 0.000000, 4211.794922, 4318.974121, 4098.974121, 3809.743408, 4007.692139, 0.000000, 8146.000000, 8341.000000, 0.000000, 0.000000, 0.000000, 3.000000, 806.399994, 1557623992.093920, 4.000000, 4.000000, 0.000000, 4.000000, 4.000000
47.000000, 0.000000, 4204.615234, 4338.974121, 4091.794678, 3778.974365, 3992.307617, 0.000000, 8139.000000, 8355.000000, 0.000000, 0.000000, 0.000000, 3.000000, 814.200012, 1557623992.101720, 4.000000, 4.000000, 0.000000, 4.000000, 4.000000
48.000000, 0.000000, 4230.256348, 4337.436035, 4080.000000, 3796.410156, 3987.692139, 0.000000, 8137.000000, 8367.000000, 0.000000, 0.000000, 0.000000, 3.000000, 822.000000, 1557623992.109520, 4.000000, 4.000000, 0.000000, 4.000000, 4.000000
49.000000, 0.000000, 4232.307617, 4321.025391, 4080.000000, 3810.256348, 3989.743408, 0.000000, 8148.000000, 8374.000000, 0.000000, 0.000000, 0.000000, 3.000000, 829.799988, 1557623992.117320, 4.000000, 4.000000, 0.000000, 4.000000, 4.000000
50.000000, 0.000000, 4192.820313, 4320.000000, 4096.922852, 3789.230713, 3982.051270, 0.000000, 8145.000000, 8371.000000, 0.000000, 0.000000, 0.000000, 3.000000, 837.500000, 1557623992.125020, 4.000000, 4.000000, 0.000000, 4.000000, 4.000000
51.000000, 0.000000, 4175.384277, 4325.641113, 4087.179443, 3772.820313, 3965.128174, 0.000000, 8150.000000, 8365.000000, 0.000000, 0.000000, 0.000000, 3.000000, 845.500000, 1557623992.133020, 4.000000, 4.000000, 0.000000, 4.000000, 4.000000
52.000000, 0.000000, 4193.846191, 4315.384277, 4082.563965, 3784.615234, 3972.820313, 0.000000, 8147.000000, 8364.000000, 0.000000, 0.000000, 0.000000, 3.000000, 853.500000, 1557623992.141020, 4.000000, 4.000000, 0.000000, 4.000000, 4.000000
53.000000, 0.000000, 4196.410156, 4322.051270, 4094.871582, 3796.923096, 4002.051270, 0.000000, 8145.000000, 8357.000000, 0.000000, 0.000000, 0.000000, 3.000000, 861.500000, 1557623992.149020, 4.000000, 4.000000, 0.000000, 4.000000, 4.000000
