title:Bhavan sad1, recorded:12.05.19 12.43.47, timestamp started:2019-05-12T12:43:47.729274+05:30, sampling:128, subject:, labels:COUNTER INTERPOLATED AF3 T7 Pz T8 AF4 RAW_CQ GYROX GYROY MARKER MARKER_HARDWARE SYNC TIME_STAMP_s TIME_STAMP_ms TimeStamp CQ_AF3 CQ_T7 CQ_Pz CQ_T8 CQ_AF4, chan:20, samples:15432, units:emotiv
49.000000, 0.000000, 3928.717773, 4441.538574, 3602.051270, 3734.358887, 3675.384521, 0.000000, 8141.000000, 8353.000000, 1.000000, 1.000000, 0.000000, 0.000000, 0.000000, 1557645227.729274, 4.000000, 4.000000, 4.000000, 4.000000, 4.000000
50.000000, 0.000000, 3930.256348, 4442.563965, 3571.794678, 3714.358887, 3654.871826, 0.000000, 8148.000000, 8348.000000, 0.000000, 0.000000, 0.000000, 0.000000, 7.700012, 1557645227.736974, 4.000000, 4.000000, 4.000000, 4.000000, 4.000000
51.000000, 0.000000, 3930.256348, 4441.538574, 3580.512695, 3743.076904, 3653.333252, 0.000000, 8142.000000, 8345.000000, 0.000000, 0.000000, 0.000000, 0.000000, 15.500000, 1557645227.744774, 4.000000, 4.000000, 4.000000, 4.000000, 4.000000
52.000000, 0.000000, 3937.435791, 4450.769043, 3590.256348, 3730.256348, 3648.205078, 0.000000, 8138.000000, 8359.000000, 0.000000, 0.000000, 0.000000, 0.000000, 23.300018, 1557645227.752574, 4.000000, 4.000000, 4.000000, 4.000000, 4.000000
53.000000, 0.000000, 3909.743408, 4448.717773, 3562.051270, 3687.179443, 3607.692139, 0.000000, 8146.000000, 8365.000000, 0.000000, 0.000000, 0.000000, 0.000000, 31.300018, 1557645227.760574, 4.000000, 4.000000, 4.000000, 4.000000, 4.000000
54.000000, 0.000000, 3880.512695, 4433.846191, 3527.179443, 3702.563965, 3588.717773, 0.000000, 8150.000000, 8357.000000, 0.000000, 0.000000, 0.000000, 0.000000, 39.100006, 1557645227.768374, 4.000000, 4.000000, 4.000000, 4.000000, 4.000000
55.000000, 0.000000, 3886.153809, 4443.076660, 3531.794678, 3714.358887, 3601.025635, 0.000000, 8142.000000, 8351.000000, 0.000000, 0.000000, 0.000000, 0.000000, 47.100006, 1557645227.776374, 4.000000, 4.000000, 4.000000, 4.000000, 4.000000
56.000000, 0.000000, 3877.435791, 4461.025391, 3547.692139, 3702.563965, 3582.051270, 0.000000, 8140.000000, 8364.000000, 0.000000, 0.000000, 0.000000, 0.000000, 55.100006, 1557645227.784374, 4.000000, 4.000000, 4.000000, 4.000000, 4.000000
57.000000, 0.000000, 3849.743408, 4451.794922, 3520.000000, 3723.076904, 3545.640869, 0.000000, 8146.000000, 8356.000000, 0.000000, 0.000000, 0.000000, 0.000000, 63.100006, 1557645227.792374, 4.000000, 4.000000, 4.000000, 4.000000, 4.000000
58.000000, 0.000000, 3832.820313, 4432.820313, 3481.025635, 3725.128174, 3525.128174, 0.000000, 8146.000000, 8351.000000, 0.000000, 0.000000, 0.000000, 0.000000, 71.000000, 1557645227.800274, 4.000000, 4.000000, 4.000000, 4.000000, 4.000000
59.000000, 0.000000, 3822.051270, 4431.794922, 3480.512695, 3703.076904, 3502.563965, 0.000000, 8143.000000, 8345.000000, 0.000000, 0.000000, 0.000000, 0.000000, 78.800018, 1557645227.808074, 4.000000, 4.000000, 4.000000, 4.000000, 4.000000
60.000000, 0.000000, 3811.794678, 4450.769043, 3484.615234, 3708.717773, 3476.410156, 0.000000, 8147.000000, 8353.000000, 0.000000, 0.000000, 0.000000, 0.000000, 86.600006, 1557645227.815874, 4.000000, 4.000000, 4.000000, 4.000000, 4.000000
61.000000, 0.000000, 3793.845947, 4463.076660, 3451.794678, 3694.871826, 3462.051270, 0.000000, 8149.000000, 8348.000000, 0.000000, 0.000000, 0.000000, 0.000000, 94.300018, 1557645227.823574, 4.000000, 4.000000, 4.000000, 4.000000, 4.000000
62.000000, 0.000000, 3753.333252, 4437.948730, 3404.102539, 3666.153809, 3448.717773, 0.000000, 8146.000000, 8350.000000, 0.000000, 0.000000, 0.000000, 0.000000, 102.100006, 1557645227.831374, 4.000000, 4.000000, 4.000000, 4.000000, 4.000000
63.000000, 0.000000, 3738.974365, 4410.769043, 3377.948730, 3701.025635, 3425.128174, 0.000000, 8148.000000, 8345.000000, 0.000000, 0.000000, 0.000000, 0.000000, 110.100006, 1557645227.839374, 4.000000, 4.000000, 4.000000, 4.000000, 4.000000
64.000000, 0.000000, 3776.410156, 4440.512695, 3393.846191, 3733.845947, 3424.615234, 500.000000, 8148.000000, 8339.000000, 0.000000, 0.000000, 0.000000, 0.000000, 118.100006, 1557645227.847374, 4.000000, 4.000000, 4.000000, 4.000000, 4.000000
65.000000, 0.000000, 3784.102539, 4472.307617, 3407.179443, 3698.461426, 3435.897461, 500.000000, 8153.000000, 8341.000000, 0.000000, 0.000000, 0.000000, 0.000000, 126.000000, 1557645227.855274, 4.000000, 4.000000, 4.000000, 4.000000, 4.000000
66.000000, 0.000000, 3743.076904, 4446.666504, 3359.487061, 3680.512695, 3406.153809, 16197.000000, 8143.000000, 8345.000000, 0.000000, 0.000000, 0.000000, 0.000000, 134.000000, 1557645227.863274, 4.000000, 4.000000, 4.000000, 4.000000, 4.000000
67.000000, 0.000000, 3722.563965, 4427.179199, 3308.205078, 3701.025635, 3361.025635, 500.000000, 8149.000000, 8335.000000, 0.000000, 0.000000, 0.000000, 0.000000, 141.800018, 1557645227.871074, 4.000000, 4.000000, 4.000000, 4.000000, 4.000000
68.000000, 0.000000, 3724.615234, 4439.487305, 3318.461426, 3693.333252, 3345.640869, 16065.000000, 8148.000000, 8333.000000, 0.000000, 0.000000, 0.000000, 0.000000, 149.600006, 1557645227.878874, 4.000000, 4.000000, 4.000000, 4.000000, 4.000000
69.000000, 0.000000, 3723.589600, 4453.333008, 3349.743408, 3659.487061, 3344.102539, 500.000000, 8140.000000, 8341.000000, 0.000000, 0.000000, 0.000000, 0.000000, 157.300018, 1557645227.886574, 4.000000, 4.000000, 4.000000, 4.000000, 4.000000
70.000000, 0.000000, 3726.153809, 4471.281738, 3356.410156, 3664.102539, 3347.179443, 16118.000000, 8140.000000, 8344.000000, 0.000000, 0.000000, 0.000000, 0.000000, 165.200012, 1557645227.894474, 4.000000, 4.000000, 4.000000, 4.000000, 4.000000
71.000000, 0.000000, 3723.076904, 4471.794922, 3347.179443, 3712.307617, 3345.128174, 500.000000, 8141.000000, 8338.000000, 0.000000, 0.000000, 0.000000, 0.000000, 173.200012, 1557645227.902474, 4.000000, 4.000000, 4.000000, 4.000000, 4.000000
72.000000, 0.000000, 3695.384521, 4441.538574, 3345.640869, 3704.615234, 3320.512695, 500.000000, 8140.000000, 8344.000000, 0.000000, 0.000000, 0.000000, 0.000000, 181.100006, 1557645227.910374, 4.000000, 4.000000, 4.000000, 4.000000, 4.000000
73.000000, 0.000000, 3678.974365, 4440.512695, 3347.179443, 3650.256348, 3301.538330, 16074.000000, 8139.000000, 8347.000000, 0.000000, 0.000000, 0.000000, 0.000000, 189.100006, 1557645227.918374, 4.000000, 4.000000, 4.000000, 4.000000, 4.000000
74.000000, 0.000000, 3701.025635, 4485.127930, 3345.640869, 3661.538330, 3298.974365, 500.000000, 8134.000000, 8349.000000, 0.000000, 0.000000, 0.000000, 0.000000, 197.100006, 1557645227.926374, 4.000000, 4.000000, 4.000000, 4.000000, 4.000000
75.000000, 0.000000, 3710.769043, 4487.179199, 3349.230713, 3697.948730, 3284.615234, 16166.000000, 8133.000000, 8352.000000, 0.000000, 0.000000, 0.000000, 0.000000, 204.899994, 1557645227.934174, 4.000000, 4.000000, 4.000000, 4.000000, 4.000000
76.000000, 0.000000, 3699.487061, 4460.000000, 3368.205078, 3682.051270, 3281.025635, 500.000000, 8139.000000, 8351.000000, 0.000000, 0.000000, 0.000000, 0.000000, 212.600006, 1557645227.941874, 4.000000, 4.000000, 4.000000, 4.000000, 4.000000
77.000000, 0.000000, 3700.000000, 4468.205078, 3375.384521, 3671.281982, 3293.846191, 500.000000, 8142.000000, 8354.000000, 0.000000, 0.000000, 0.000000, 0.000000, 220.399994, 1557645227.949674, 4.000000, 4.000000, 4.000000, 4.000000, 4.000000
78.000000, 0.000000, 3699.487061, 4491.281738, 3346.153809, 3677.948730, 3279.487061, 450.000000, 8141.000000, 8364.000000, 0.000000, 0.000000, 0.000000, 0.000000, 228.199982, 1557645227.957474, 4.000000, 4.000000, 4.000000, 4.000000, 4.000000
79.000000, 0.000000, 3683.076904, 4486.666504, 3327.179443, 3659.487061, 3248.717773, 16166.000000, 8146.000000, 8360.000000, 0.000000, 0.000000, 0.000000, 0.000000, 236.199982, 1557645227.965474, 4.000000, 4.000000, 4.000000, 4.000000, 4.000000
80.000000, 0.000000, 3673.845947, 4458.974121, 3328.205078, 3660.000000, 3229.230713, 450.000000, 8146.000000, 8353.000000, 0.000000, 0.000000, 0.000000, 0.000000, 244.100006, 1557645227.973374, 4.000000, 4.000000, 4.000000, 4.000000, 4.000000
81.000000, 0.000000, 3687.179443, 4458.974121, 3327.179443, 3700.000000, 3228.205078, 450.000000, 8142.000000, 8356.000000, 0.000000, 0.000000, 0.000000, 0.000000, 252.100006, 1557645227.981374, 4.000000, 4.000000, 4.000000, 4.000000, 4.000000
82.000000, 0.000000, 3688.205078, 4476.922852, 3310.256348, 3689.743408, 3222.051270, 450.000000, 8144.000000, 8359.000000, 0.000000, 0.000000, 0.000000, 0.000000, 260.100006, 1557645227.989374, 4.000000, 4.000000, 4.000000, 4.000000, 4.000000
83.000000, 0.000000, 3657.435791, 4473.846191, 3281.538330, 3635.897461, 3185.128174, 16166.000000, 8154.000000, 8363.000000, 0.000000, 0.000000, 0.000000, 0.000000, 268.100006, 1557645227.997374, 4.000000, 4.000000, 4.000000, 4.000000, 4.000000
84.000000, 0.000000, 3624.615234, 4442.563965, 3246.153809, 3622.563965, 3137.435791, 450.000000, 8154.000000, 8352.000000, 0.000000, 0.000000, 0.000000, 0.000000, 275.800018, 1557645228.005074, 4.000000, 4.000000, 4.000000, 4.000000, 4.000000
85.000000, 0.000000, 3618.974365, 4424.102539, 3209.230713, 3627.179443, 3113.846191, 450.000000, 8152.000000, 8357.000000, 0.000000, 0.000000, 0.000000, 0.000000, 283.600006, 1557645228.012874, 4.000000, 4.000000, 4.000000, 4.000000, 4.000000
86.000000, 0.000000, 3617.435791, 4431.794922, 3192.820557, 3615.897461, 3106.666504, 450.000000, 8151.000000, 8362.000000, 0.000000, 0.000000, 0.000000, 0.000000, 291.399994, 1557645228.020674, 4.000000, 4.000000, 4.000000, 4.000000, 4.000000
87.000000, 0.000000, 3603.076904, 4429.230469, 3200.000000, 3617.435791, 3087.692139, 16166.000000, 8147.000000, 8360.000000, 0.000000, 0.000000, 0.000000, 0.000000, 299.100006, 1557645228.028374, 4.000000, 4.000000, 4.000000, 4.000000, 4.000000
88.000000, 0.000000, 3598.974365, 4422.563965, 3212.307617, 3616.410156, 3070.769043, 450.000000, 8145.000000, 8360.000000, 0.000000, 0.000000, 0.000000, 0.000000, 307.100006, 1557645228.036374, 4.000000, 4.000000, 4.000000, 4.000000, 4.000000
89.000000, 0.000000, 3599.487061, 4426.153809, 3204.102539, 3604.615234, 3066.666504, 450.000000, 8144.000000, 8359.000000, 0.000000, 0.000000, 0.000000, 0.000000, 315.100006, 1557645228.044374, 4.000000, 4.000000, 4.000000, 4.000000, 4.000000
90.000000, 0.000000, 3590.256348, 4425.641113, 3187.692139, 3619.487061, 3060.000000, 450.000000, 8146.000000, 8359.000000, 0.000000, 0.000000, 0.000000, 0.000000, 323.100006, 1557645228.052374, 4.000000, 4.000000, 4.000000, 4.000000, 4.000000
91.000000, 0.000000, 3585.128174, 4413.333008, 3188.717773, 3645.640869, 3054.358887, 16166.000000, 8146.000000, 8368.000000, 0.000000, 0.000000, 0.000000, 0.000000, 331.000031, 1557645228.060274, 4.000000, 4.000000, 4.000000, 4.000000, 4.000000
92.000000, 0.000000, 3590.256348, 4424.102539, 3189.743408, 3646.153809, 3056.923096, 450.000000, 8141.000000, 8368.000000, 0.000000, 0.000000, 0.000000, 0.000000, 338.800018, 1557645228.068074, 4.000000, 4.000000, 4.000000, 4.000000, 4.000000
93.000000, 0.000000, 3590.256348, 4435.384277, 3172.820557, 3628.205078, 3045.128174, 450.000000, 8145.000000, 8356.000000, 0.000000, 0.000000, 0.000000, 0.000000, 346.600006, 1557645228.075874, 4.000000, 4.000000, 4.000000, 4.000000, 4.000000
94.000000, 0.000000, 3577.948730, 4412.307617, 3148.717773, 3602.563965, 3005.640869, 450.000000, 8144.000000, 8364.000000, 0.000000, 0.000000, 0.000000, 0.000000, 354.399994, 1557645228.083674, 4.000000, 4.000000, 4.000000, 4.000000, 4.000000
95.000000, 0.000000, 3565.128174, 4399.487305, 3139.487061, 3593.845947, 2987.179443, 16166.000000, 8138.000000, 8366.000000, 0.000000, 0.000000, 0.000000, 0.000000, 362.100006, 1557645228.091374, 4.000000, 4.000000, 4.000000, 4.000000, 4.000000
96.000000, 0.000000, 3572.820313, 4416.410156, 3132.307617, 3622.051270, 3005.128174, 450.000000, 8138.000000, 8368.000000, 0.000000, 0.000000, 0.000000, 0.000000, 370.100006, 1557645228.099374, 4.000000, 4.000000, 4.000000, 4.000000, 4.000000
97.000000, 0.000000, 3592.307617, 4429.743652, 3122.563965, 3622.051270, 3016.923096, 450.000000, 8140.000000, 8353.000000, 0.000000, 0.000000, 0.000000, 0.000000, 378.100006, 1557645228.107374, 4.000000, 4.000000, 4.000000, 4.000000, 4.000000
98.000000, 0.000000, 3587.179443, 4422.051270, 3116.923096, 3596.410156, 3007.179443, 450.000000, 8134.000000, 8356.000000, 0.000000, 0.000000, 0.000000, 0.000000, 386.000031, 1557645228.115274, 4.000000, 4.000000, 4.000000, 4.000000, 4.000000
99.000000, 0.000000, 3573.333252, 4412.307617, 3112.307617, 3617.948730, 2994.871826, 16166.000000, 8135.000000, 8363.000000, 0.000000, 0.000000, 0.000000, 0.000000, 394.000031, 1557645228.123274, 4.000000, 4.000000, 4.000000, 4.000000, 4.000000
100.000000, 0.000000, 3586.153809, 4414.871582, 3111.794678, 3638.974365, 2996.410156, 450.000000, 8140.000000, 8358.000000, 0.000000, 0.000000, 0.000000, 0.000000, 402.000031, 1557645228.131274, 4.000000, 4.000000, 4.000000, 4.000000, 4.000000
101.000000, 0.000000, 3598.974365, 4420.000000, 3112.307617, 3623.589600, 2996.923096, 450.000000, 8137.000000, 8355.000000, 0.000000, 0.000000, 0.000000, 0.000000, 409.800018, 1557645228.139074, 4.000000, 4.000000, 4.000000, 4.000000, 4.000000
102.000000, 0.000000, 3581.025635, 4416.410156, 3105.128174, 3624.102539, 2982.051270, 450.000000, 8139.000000, 8352.000000, 0.000000, 0.000000, 0.000000, 0.000000, 417.500031, 1557645228.146774, 4.000000, 4.000000, 4.000000, 4.000000, 4.000000
103.000000, 0.000000, 3576.923096, 4417.948730, 3089.230713, 3651.281982, 2986.153809, 16166.000000, 8149.000000, 8353.000000, 0.000000, 0.000000, 0.000000, 0.000000, 425.300018, 1557645228.154574, 4.000000, 4.000000, 4.000000, 4.000000, 4.000000
104.000000, 0.000000, 3586.666504, 4414.871582, 3076.410156, 3641.025635, 3004.615234, 450.000000, 8151.000000, 8355.000000, 0.000000, 0.000000, 0.000000, 0.000000, 433.100006, 1557645228.162374, 4.000000, 4.000000, 4.000000, 4.000000, 4.000000
105.000000, 0.000000, 3567.692139, 4405.127930, 3083.076904, 3608.205078, 2989.230713, 450.000000, 8145.000000, 8351.000000, 0.000000, 0.000000, 0.000000, 0.000000, 441.100006, 1557645228.170374, 4.000000, 4.000000, 4.000000, 4.000000, 4.000000
106.000000, 0.000000, 3565.128174, 4413.333008, 3086.666504, 3631.794678, 2979.487061, 450.000000, 8144.000000, 8347.000000, 0.000000, 0.000000, 0.000000, 0.000000, 449.000031, 1557645228.178274, 4.000000, 4.000000, 4.000000, 4.000000, 4.000000
107.000000, 0.000000, 3596.923096, 4419.487305, 3062.051270, 3657.435791, 3009.230713, 16166.000000, 8148.000000, 8339.000000, 0.000000, 0.000000, 0.000000, 0.000000, 457.000031, 1557645228.186274, 4.000000, 4.000000, 4.000000, 4.000000, 4.000000
108.000000, 0.000000, 3606.153809, 4408.717773, 3051.281982, 3633.845947, 3022.563965, 450.000000, 8150.000000, 8346.000000, 0.000000, 0.000000, 0.000000, 0.000000, 464.800018, 1557645228.194074, 4.000000, 4.000000, 4.000000, 4.000000, 4.000000
109.000000, 0.000000, 3585.128174, 4398.974121, 3068.717773, 3626.666504, 3004.102539, 450.000000, 8144.000000, 8342.000000, 0.000000, 0.000000, 0.000000, 0.000000, 472.500031, 1557645228.201774, 4.000000, 4.000000, 4.000000, 4.000000, 4.000000
110.000000, 0.000000, 3582.563965, 4394.358887, 3056.923096, 3653.845947, 2993.846191, 450.000000, 8145.000000, 8333.000000, 0.000000, 0.000000, 0.000000, 0.000000, 480.300018, 1557645228.209574, 4.000000, 4.000000, 4.000000, 4.000000, 4.000000
111.000000, 0.000000, 3600.512695, 4400.000000, 3036.923096, 3646.153809, 3000.000000, 16166.000000, 8143.000000, 8340.000000, 0.000000, 0.000000, 0.000000, 0.000000, 488.300018, 1557645228.217574, 4.000000, 4.000000, 4.000000, 4.000000, 4.000000
112.000000, 0.000000, 3610.769043, 4421.025391, 3045.640869, 3629.230713, 3007.179443, 450.000000, 8138.000000, 8345.000000, 0.000000, 0.000000, 0.000000, 0.000000, 496.199982, 1557645228.225474, 4.000000, 4.000000, 4.000000, 4.000000, 4.000000
113.000000, 0.000000, 3613.845947, 4427.179199, 3037.435791, 3656.923096, 3008.717773, 450.000000, 8141.000000, 8339.000000, 0.000000, 0.000000, 0.000000, 0.000000, 504.100006, 1557645228.233374, 4.000000, 4.000000, 4.000000, 4.000000, 4.000000
114.000000, 0.000000, 3600.000000, 4398.974121, 3020.512695, 3649.230713, 3000.512695, 450.000000, 8142.000000, 8335.000000, 0.000000, 0.000000, 0.000000, 0.000000, 512.100006, 1557645228.241374, 4.000000, 4.000000, 4.000000, 4.000000, 4.000000
115.000000, 0.000000, 3582.563965, 4382.563965, 3041.025635, 3630.256348, 3002.051270, 16166.000000, 8139.000000, 8338.000000, 0.000000, 0.000000, 0.000000, 0.000000, 520.100006, 1557645228.249374, 4.000000, 4.000000, 4.000000, 4.000000, 4.000000
116.000000, 0.000000, 3588.717773, 4395.384277, 3051.794678, 3674.871826, 3015.384521, 450.000000, 8139.000000, 8339.000000, 0.000000, 0.000000, 0.000000, 0.000000, 528.100006, 1557645228.257374, 4.000000, 4.000000, 4.000000, 4.000000, 4.000000
117.000000, 0.000000, 3608.205078, 4401.538574, 3020.000000, 3702.563965, 3017.948730, 450.000000, 8139.000000, 8345.000000, 0.000000, 0.000000, 0.000000, 0.000000, 536.000031, 1557645228.265274, 4.000000, 4.000000, 4.000000, 4.000000, 4.000000
118.000000, 0.000000, 3607.179443, 4388.205078, 3001.025635, 3676.410156, 3016.923096, 450.000000, 8144.000000, 8347.000000, 0.000000, 0.000000, 0.000000, 0.000000, 543.800018, 1557645228.273074, 4.000000, 4.000000, 4.000000, 4.000000, 4.000000
119.000000, 0.000000, 3602.051270, 4402.051270, 3019.487061, 3670.256348, 3035.384521, 16166.000000, 8152.000000, 8341.000000, 0.000000, 0.000000, 0.000000, 0.000000, 551.600006, 1557645228.280874, 4.000000, 4.000000, 4.000000, 4.000000, 4.000000
120.000000, 0.000000, 3615.384521, 4431.281738, 3034.871826, 3697.435791, 3054.871826, 450.000000, 8150.000000, 8346.000000, 0.000000, 0.000000, 0.000000, 0.000000, 559.399994, 1557645228.288674, 4.000000, 4.000000, 4.000000, 4.000000, 4.000000
121.000000, 0.000000, 3611.794678, 4406.666504, 3025.640869, 3693.333252, 3043.076904, 450.000000, 8145.000000, 8355.000000, 0.000000, 0.000000, 0.000000, 0.000000, 567.100006, 1557645228.296374, 4.000000, 4.000000, 4.000000, 4.000000, 4.000000
122.000000, 0.000000, 3607.179443, 4384.615234, 3023.589600, 3672.820313, 3049.743408, 450.000000, 8145.000000, 8361.000000, 0.000000, 0.000000, 0.000000, 0.000000, 575.100006, 1557645228.304374, 4.000000, 4.000000, 4.000000, 4.000000, 4.000000
123.000000, 0.000000, 3625.128174, 4405.641113, 3022.563965, 3691.281982, 3076.410156, 16166.000000, 8152.000000, 8348.000000, 0.000000, 0.000000, 0.000000, 0.000000, 583.100006, 1557645228.312374, 4.000000, 4.000000, 4.000000, 4.000000, 4.000000
124.000000, 0.000000, 3633.845947, 4406.666504, 2996.923096, 3717.435791, 3067.692139, 450.000000, 8153.000000, 8355.000000, 0.000000, 0.000000, 0.000000, 0.000000, 591.000031, 1557645228.320274, 4.000000, 4.000000, 4.000000, 4.000000, 4.000000
125.000000, 0.000000, 3640.000000, 4397.948730, 2993.333252, 3718.974365, 3078.974365, 450.000000, 8148.000000, 8360.000000, 0.000000, 0.000000, 0.000000, 0.000000, 598.800018, 1557645228.328074, 4.000000, 4.000000, 4.000000, 4.000000, 4.000000
126.000000, 0.000000, 3653.845947, 4412.307617, 3011.794678, 3713.845947, 3117.435791, 450.000000, 8146.000000, 8364.000000, 0.000000, 0.000000, 0.000000, 0.000000, 606.600006, 1557645228.335874, 4.000000, 4.000000, 4.000000, 4.000000, 4.000000
127.000000, 0.000000, 3638.461426, 4405.641113, 2998.461426, 3711.794678, 3091.794678, 16166.000000, 8152.000000, 8359.000000, 0.000000, 0.000000, 0.000000, 0.000000, 614.399994, 1557645228.343674, 4.000000, 4.000000, 4.000000, 4.000000, 4.000000
128.000000, 0.000000, 3624.615234, 4382.563965, 2988.205078, 3713.845947, 3063.589600, 500.000000, 8151.000000, 8358.000000, 0.000000, 0.000000, 0.000000, 0.000000, 622.199982, 1557645228.351474, 4.000000, 4.000000, 4.000000, 4.000000, 4.000000
0.000000, 0.000000, 3668.205078, 4391.281738, 3008.717773, 3724.102539, 3110.256348, 500.000000, 8148.000000, 8365.000000, 0.000000, 0.000000, 0.000000, 0.000000, 630.100006, 1557645228.359374, 4.000000, 4.000000, 4.000000, 4.000000, 4.000000
1.000000, 0.000000, 3714.358887, 4409.230469, 3015.384521, 3718.461426, 3144.615234, 500.000000, 8147.000000, 8363.000000, 0.000000, 0.000000, 0.000000, 0.000000, 638.100006, 1557645228.367374, 4.000000, 4.000000, 4.000000, 4.000000, 4.000000
2.000000, 0.000000, 3714.871582, 4407.179199, 3008.205078, 3711.794678, 3143.076904, 16198.000000, 8148.000000, 8368.000000, 0.000000, 0.000000, 0.000000, 0.000000, 646.100006, 1557645228.375374, 4.000000, 4.000000, 4.000000, 4.000000, 4.000000
3.000000, 0.000000, 3714.871582, 4402.051270, 3021.538330, 3757.948730, 3166.666504, 500.000000, 8147.000000, 8367.000000, 0.000000, 0.000000, 0.000000, 0.000000, 654.000031, 1557645228.383274, 4.000000, 4.000000, 4.000000, 4.000000, 4.000000
4.000000, 0.000000, 3736.410156, 4415.897461, 3042.563965, 3790.256348, 3195.897461, 16072.000000, 8147.000000, 8358.000000, 0.000000, 0.000000, 0.000000, 0.000000, 661.800018, 1557645228.391074, 4.000000, 4.000000, 4.000000, 4.000000, 4.000000
5.000000, 0.000000, 3737.435791, 4419.487305, 3035.897461, 3753.845947, 3195.897461, 500.000000, 8149.000000, 8370.000000, 0.000000, 0.000000, 0.000000, 0.000000, 669.600006, 1557645228.398874, 4.000000, 4.000000, 4.000000, 4.000000, 4.000000
6.000000, 0.000000, 3724.102539, 4394.871582, 3004.615234, 3737.435791, 3184.615234, 16136.000000, 8146.000000, 8364.000000, 0.000000, 0.000000, 0.000000, 0.000000, 677.300018, 1557645228.406574, 4.000000, 4.000000, 4.000000, 4.000000, 4.000000
7.000000, 0.000000, 3731.794678, 4401.025391, 2975.897461, 3763.076904, 3195.897461, 500.000000, 8145.000000, 8356.000000, 0.000000, 0.000000, 0.000000, 0.000000, 685.199982, 1557645228.414474, 4.000000, 4.000000, 4.000000, 4.000000, 4.000000
8.000000, 0.000000, 3740.000000, 4422.051270, 2954.358887, 3754.871582, 3222.563965, 500.000000, 8143.000000, 8356.000000, 0.000000, 0.000000, 0.000000, 0.000000, 693.200006, 1557645228.422474, 4.000000, 4.000000, 4.000000, 4.000000, 4.000000
9.000000, 0.000000, 3731.281982, 4396.410156, 2946.666504, 3736.923096, 3222.051270, 16072.000000, 8139.000000, 8366.000000, 0.000000, 0.000000, 0.000000, 0.000000, 701.200006, 1557645228.430474, 4.000000, 4.000000, 4.000000, 4.000000, 4.000000
10.000000, 0.000000, 3725.128174, 4384.102539, 2964.615234, 3747.179443, 3203.076904, 500.000000, 8138.000000, 8366.000000, 0.000000, 0.000000, 0.000000, 0.000000, 709.100006, 1557645228.438374, 4.000000, 4.000000, 4.000000, 4.000000, 4.000000
11.000000, 0.000000, 3719.487061, 4402.563965, 2982.051270, 3737.435791, 3208.205078, 16170.000000, 8143.000000, 8356.000000, 0.000000, 0.000000, 0.000000, 0.000000, 717.100006, 1557645228.446374, 4.000000, 4.000000, 4.000000, 4.000000, 4.000000
12.000000, 0.000000, 3709.743408, 4384.615234, 2980.512695, 3736.410156, 3223.589600, 500.000000, 8149.000000, 8351.000000, 0.000000, 0.000000, 0.000000, 0.000000, 725.100006, 1557645228.454374, 4.000000, 4.000000, 4.000000, 4.000000, 4.000000
13.000000, 0.000000, 3711.281982, 4370.256348, 2973.333252, 3766.153809, 3217.435791, 500.000000, 8148.000000, 8355.000000, 0.000000, 0.000000, 0.000000, 0.000000, 732.900005, 1557645228.462174, 4.000000, 4.000000, 4.000000, 4.000000, 4.000000
14.000000, 0.000000, 3714.358887, 4383.076660, 2975.384521, 3755.384521, 3227.179443, 450.000000, 8138.000000, 8354.000000, 0.000000, 0.000000, 0.000000, 0.000000, 740.600006, 1557645228.469874, 4.000000, 4.000000, 4.000000, 4.000000, 4.000000
15.000000, 0.000000, 3713.845947, 4374.358887, 2983.589600, 3737.435791, 3260.512695, 16170.000000, 8133.000000, 8349.000000, 0.000000, 0.000000, 0.000000, 0.000000, 748.400005, 1557645228.477674, 4.000000, 4.000000, 4.000000, 4.000000, 4.000000
16.000000, 0.000000, 3723.076904, 4367.179199, 2987.692139, 3764.615234, 3262.051270, 0.000000, 8148.000000, 8354.000000, 0.000000, 0.000000, 0.000000, 0.000000, 756.200005, 1557645228.485474, 4.000000, 4.000000, 4.000000, 4.000000, 4.000000
17.000000, 0.000000, 3723.589600, 4372.820313, 3010.769043, 3776.923096, 3245.128174, 0.000000, 8150.000000, 8348.000000, 0.000000, 0.000000, 0.000000, 0.000000, 764.200005, 1557645228.493474, 4.000000, 4.000000, 4.000000, 4.000000, 4.000000
18.000000, 0.000000, 3713.333252, 4367.692383, 3054.358887, 3747.692139, 3258.974365, 0.000000, 8148.000000, 8348.000000, 0.000000, 0.000000, 0.000000, 0.000000, 772.100006, 1557645228.501374, 4.000000, 4.000000, 4.000000, 4.000000, 4.000000
19.000000, 0.000000, 3725.128174, 4357.948730, 3051.281982, 3717.948730, 3270.769043, 0.000000, 8146.000000, 8357.000000, 0.000000, 0.000000, 0.000000, 0.000000, 780.100006, 1557645228.509374, 4.000000, 4.000000, 4.000000, 4.000000, 4.000000
20.000000, 0.000000, 3752.820313, 4349.743652, 3017.948730, 3726.153809, 3261.538330, 0.000000, 8146.000000, 8347.000000, 0.000000, 0.000000, 0.000000, 0.000000, 788.100006, 1557645228.517374, 4.000000, 4.000000, 4.000000, 4.000000, 4.000000
21.000000, 0.000000, 3759.487061, 4343.076660, 3034.358887, 3761.538330, 3280.000000, 0.000000, 8150.000000, 8345.000000, 0.000000, 0.000000, 0.000000, 0.000000, 796.000008, 1557645228.525274, 4.000000, 4.000000, 4.000000, 4.000000, 4.000000
22.000000, 0.000000, 3760.512695, 4360.512695, 3073.333252, 3768.205078, 3316.923096, 0.000000, 8149.000000, 8358.000000, 0.000000, 0.000000, 0.000000, 0.000000, 803.800003, 1557645228.533074, 4.000000, 4.000000, 4.000000, 4.000000, 4.000000
23.000000, 0.000000, 3784.102539, 4383.589844, 3080.000000, 3750.256348, 3332.820313, 0.000000, 8148.000000, 8358.000000, 0.000000, 0.000000, 0.000000, 0.000000, 811.600006, 1557645228.540874, 4.000000, 4.000000, 4.000000, 4.000000, 4.000000
24.000000, 0.000000, 3790.256348, 4362.563965, 3075.384521, 3756.410156, 3328.717773, 0.000000, 8150.000000, 8340.000000, 0.000000, 0.000000, 0.000000, 0.000000, 819.500000, 1557645228.548774, 4.000000, 4.000000, 4.000000, 4.000000, 4.000000
25.000000, 0.000000, 3774.358887, 4337.948730, 3080.000000, 3763.076904, 3324.615234, 0.000000, 8150.000000, 8347.000000, 0.000000, 0.000000, 0.000000, 0.000000, 827.200012, 1557645228.556474, 4.000000, 4.000000, 4.000000, 4.000000, 4.000000
26.000000, 0.000000, 3771.281982, 4347.692383, 3099.487061, 3766.666504, 3341.025635, 0.000000, 8148.000000, 8349.000000, 0.000000, 0.000000, 0.000000, 0.000000, 835.200012, 1557645228.564474, 4.000000, 4.000000, 4.000000, 4.000000, 4.000000
27.000000, 0.000000, 3768.205078, 4350.256348, 3114.871826, 3788.205078, 3353.846191, 0.000000, 8144.000000, 8358.000000, 0.000000, 0.000000, 0.000000, 0.000000, 843.200012, 1557645228.572474, 4.000000, 4.000000, 4.000000, 4.000000, 4.000000
28.000000, 0.000000, 3765.640869, 4334.871582, 3106.666504, 3773.333252, 3342.563965, 0.000000, 8142.000000, 8355.000000, 0.000000, 0.000000, 0.000000, 0.000000, 851.100006, 1557645228.580374, 4.000000, 4.000000, 4.000000, 4.000000, 4.000000
29.000000, 0.000000, 3781.538330, 4347.179199, 3113.846191, 3750.769043, 3357.435791, 0.000000, 8147.000000, 8352.000000, 0.000000, 0.000000, 0.000000, 0.000000, 859.000000, 1557645228.588274, 4.000000, 4.000000, 4.000000, 4.000000, 4.000000
30.000000, 0.000000, 3782.563965, 4352.307617, 3137.435791, 3775.897461, 3386.666504, 0.000000, 8147.000000, 8349.000000, 0.000000, 0.000000, 0.000000, 0.000000, 866.800003, 1557645228.596074, 4.000000, 4.000000, 4.000000, 4.000000, 4.000000
31.000000, 0.000000, 3756.410156, 4313.846191, 3130.256348, 3785.640869, 3370.256348, 0.000000, 8144.000000, 8346.000000, 0.000000, 0.000000, 0.000000, 0.000000, 874.600006, 1557645228.603874, 4.000000, 4.000000, 4.000000, 4.000000, 4.000000
32.000000, 0.000000, 3762.563965, 4314.871582, 3123.076904, 3773.333252, 3357.948730, 0.000000, 8144.000000, 8351.000000, 0.000000, 0.000000, 0.000000, 0.000000, 882.300003, 1557645228.611574, 4.000000, 4.000000, 4.000000, 4.000000, 4.000000
33.000000, 0.000000, 3789.230713, 4342.563965, 3141.538330, 3780.000000, 3394.358887, 0.000000, 8145.000000, 8355.000000, 0.000000, 0.000000, 0.000000, 0.000000, 890.100006, 1557645228.619374, 4.000000, 4.000000, 4.000000, 4.000000, 4.000000
34.000000, 0.000000, 3786.153809, 4333.846191, 3155.897461, 3789.743408, 3418.461426, 0.000000, 8146.000000, 8346.000000, 0.000000, 0.000000, 0.000000, 0.000000, 898.100006, 1557645228.627374, 4.000000, 4.000000, 4.000000, 4.000000, 4.000000
35.000000, 0.000000, 3780.000000, 4321.538574, 3174.358887, 3790.769043, 3426.153809, 0.000000, 8144.000000, 8358.000000, 0.000000, 0.000000, 0.000000, 0.000000, 906.100006, 1557645228.635374, 4.000000, 4.000000, 4.000000, 4.000000, 4.000000
36.000000, 0.000000, 3799.487061, 4330.769043, 3201.025635, 3793.845947, 3455.384521, 0.000000, 8144.000000, 8357.000000, 0.000000, 0.000000, 0.000000, 0.000000, 913.800003, 1557645228.643074, 4.000000, 4.000000, 4.000000, 4.000000, 4.000000
37.000000, 0.000000, 3814.871582, 4338.461426, 3208.205078, 3798.461426, 3473.333252, 0.000000, 8144.000000, 8347.000000, 0.000000, 0.000000, 0.000000, 0.000000, 921.800003, 1557645228.651074, 4.000000, 4.000000, 4.000000, 4.000000, 4.000000
38.000000, 0.000000, 3798.974365, 4330.769043, 3214.358887, 3796.923096, 3458.974365, 0.000000, 8147.000000, 8350.000000, 0.000000, 0.000000, 0.000000, 0.000000, 929.600006, 1557645228.658874, 4.000000, 4.000000, 4.000000, 4.000000, 4.000000
39.000000, 0.000000, 3787.692139, 4322.051270, 3237.435791, 3803.589600, 3457.948730, 0.000000, 8151.000000, 8349.000000, 0.000000, 0.000000, 0.000000, 0.000000, 937.400009, 1557645228.666674, 4.000000, 4.000000, 4.000000, 4.000000, 4.000000
40.000000, 0.000000, 3815.897461, 4346.666504, 3251.281982, 3827.692139, 3498.974365, 0.000000, 8144.000000, 8353.000000, 0.000000, 0.000000, 0.000000, 0.000000, 945.100006, 1557645228.674374, 4.000000, 4.000000, 4.000000, 4.000000, 4.000000
41.000000, 0.000000, 3842.051270, 4372.307617, 3251.281982, 3834.358887, 3526.666504, 0.000000, 8142.000000, 8348.000000, 0.000000, 0.000000, 0.000000, 0.000000, 953.000000, 1557645228.682274, 4.000000, 4.000000, 4.000000, 4.000000, 4.000000
42.000000, 0.000000, 3819.487061, 4326.666504, 3242.051270, 3801.538330, 3495.384521, 0.000000, 8145.000000, 8352.000000, 0.000000, 0.000000, 0.000000, 0.000000, 961.000000, 1557645228.690274, 4.000000, 4.000000, 4.000000, 4.000000, 4.000000
43.000000, 0.000000, 3788.717773, 4273.846191, 3235.897461, 3779.487061, 3463.589600, 0.000000, 8149.000000, 8346.000000, 0.000000, 0.000000, 0.000000, 0.000000, 969.000000, 1557645228.698274, 4.000000, 4.000000, 4.000000, 4.000000, 4.000000
44.000000, 0.000000, 3806.153809, 4305.641113, 3265.640869, 3811.281982, 3495.384521, 0.000000, 8145.000000, 8349.000000, 0.000000, 0.000000, 0.000000, 0.000000, 976.899994, 1557645228.706174, 4.000000, 4.000000, 4.000000, 4.000000, 4.000000
45.000000, 0.000000, 3840.000000, 4345.127930, 3294.358887, 3845.128174, 3542.563965, 0.000000, 8142.000000, 8350.000000, 0.000000, 0.000000, 0.000000, 0.000000, 984.899994, 1557645228.714174, 4.000000, 4.000000, 4.000000, 4.000000, 4.000000
46.000000, 0.000000, 3833.333252, 4316.410156, 3283.589600, 3819.487061, 3546.153809, 0.000000, 8143.000000, 8350.000000, 0.000000, 0.000000, 0.000000, 0.000000, 992.700012, 1557645228.721974, 4.000000, 4.000000, 4.000000, 4.000000, 4.000000
47.000000, 0.000000, 3808.205078, 4289.743652, 3295.897461, 3795.384521, 3535.897461, 0.000000, 8151.000000, 8343.000000, 0.000000, 0.000000, 0.000000, 1.000000, 0.399994, 1557645228.729674, 4.000000, 4.000000, 4.000000, 4.000000, 4.000000
48.000000, 0.000000, 3809.230713, 4299.487305, 3341.538330, 3828.205078, 3543.076904, 0.000000, 8145.000000, 8350.000000, 0.000000, 0.000000, 0.000000, 1.000000, 8.200012, 1557645228.737474, 4.000000, 4.000000, 4.000000, 4.000000, 4.000000
49.000000, 0.000000, 3818.974365, 4288.717773, 3359.487061, 3852.307617, 3554.358887, 0.000000, 8143.000000, 8359.000000, 0.000000, 0.000000, 0.000000, 1.000000, 16.100006, 1557645228.745374, 4.000000, 4.000000, 4.000000, 4.000000, 4.000000
50.000000, 0.000000, 3825.128174, 4286.153809, 3358.974365, 3828.717773, 3567.692139, 0.000000, 8143.000000, 8348.000000, 0.000000, 0.000000, 0.000000, 1.000000, 24.100006, 1557645228.753374, 4.000000, 4.000000, 4.000000, 4.000000, 4.000000
51.000000, 0.000000, 3836.923096, 4318.974121, 3372.307617, 3830.769043, 3585.640869, 0.000000, 8141.000000, 8350.000000, 0.000000, 0.000000, 0.000000, 1.000000, 32.000000, 1557645228.761274, 4.000000, 4.000000, 4.000000, 4.000000, 4.000000
52.000000, 0.000000, 3840.512695, 4303.589844, 3380.000000, 3865.128174, 3589.743408, 0.000000, 8134.000000, 8366.000000, 0.000000, 0.000000, 0.000000, 1.000000, 40.000000, 1557645228.769274, 4.000000, 4.000000, 4.000000, 4.000000, 4.000000
53.000000, 0.000000, 3837.948730, 4256.922852, 3378.461426, 3852.307617, 3585.128174, 0.000000, 8135.000000, 8369.000000, 0.000000, 0.000000, 0.000000, 1.000000, 48.000000, 1557645228.777274, 4.000000, 4.000000, 4.000000, 4.000000, 4.000000
54.000000, 0.000000, 3844.615234, 4262.563965, 3387.179443, 3833.333252, 3598.974365, 0.000000, 8135.000000, 8362.000000, 0.000000, 0.000000, 0.000000, 1.000000, 56.000000, 1557645228.785274, 4.000000, 4.000000, 4.000000, 4.000000, 4.000000
55.000000, 0.000000, 3847.692139, 4285.641113, 3420.512695, 3873.333252, 3642.051270, 0.000000, 8141.000000, 8362.000000, 0.000000, 0.000000, 0.000000, 1.000000, 63.700012, 1557645228.792974, 4.000000, 4.000000, 4.000000, 4.000000, 4.000000
56.000000, 0.000000, 3848.717773, 4280.000000, 3450.256348, 3903.589600, 3668.205078, 0.000000, 8141.000000, 8365.000000, 0.000000, 0.000000, 0.000000, 1.000000, 71.500000, 1557645228.800774, 4.000000, 4.000000, 4.000000, 4.000000, 4.000000
57.000000, 0.000000, 3851.794678, 4262.051270, 3442.051270, 3869.743408, 3647.179443, 0.000000, 8144.000000, 8362.000000, 0.000000, 0.000000, 0.000000, 1.000000, 79.300018, 1557645228.808574, 4.000000, 4.000000, 4.000000, 4.000000, 4.000000
58.000000, 0.000000, 3838.974365, 4244.102539, 3440.000000, 3837.948730, 3631.281982, 0.000000, 8140.000000, 8365.000000, 0.000000, 0.000000, 0.000000, 1.000000, 87.100006, 1557645228.816374, 4.000000, 4.000000, 4.000000, 4.000000, 4.000000
59.000000, 0.000000, 3845.640869, 4249.230469, 3476.410156, 3864.102539, 3661.025635, 0.000000, 8144.000000, 8368.000000, 0.000000, 0.000000, 0.000000, 1.000000, 95.100006, 1557645228.824374, 4.000000, 4.000000, 4.000000, 4.000000, 4.000000
60.000000, 0.000000, 3882.563965, 4269.230469, 3491.794678, 3893.333252, 3681.538330, 0.000000, 8141.000000, 8361.000000, 0.000000, 0.000000, 0.000000, 1.000000, 103.100006, 1557645228.832374, 4.000000, 4.000000, 4.000000, 4.000000, 4.000000
61.000000, 0.000000, 3886.153809, 4259.487305, 3463.589600, 3884.615234, 3657.948730, 0.000000, 8143.000000, 8352.000000, 0.000000, 0.000000, 0.000000, 1.000000, 111.100006, 1557645228.840374, 4.000000, 4.000000, 4.000000, 4.000000, 4.000000
62.000000, 0.000000, 3867.179443, 4235.384277, 3460.512695, 3866.153809, 3648.205078, 0.000000, 8138.000000, 8358.000000, 0.000000, 0.000000, 0.000000, 1.000000, 119.000000, 1557645228.848274, 4.000000, 4.000000, 4.000000, 4.000000, 4.000000
63.000000, 0.000000, 3864.102539, 4223.589844, 3485.640869, 3860.000000, 3673.845947, 0.000000, 8144.000000, 8356.000000, 0.000000, 0.000000, 0.000000, 1.000000, 127.000000, 1557645228.856274, 4.000000, 4.000000, 4.000000, 4.000000, 4.000000
64.000000, 0.000000, 3866.666504, 4225.127930, 3499.487061, 3863.589600, 3704.102539, 500.000000, 8147.000000, 8343.000000, 0.000000, 0.000000, 0.000000, 1.000000, 134.800018, 1557645228.864074, 4.000000, 4.000000, 4.000000, 4.000000, 4.000000
65.000000, 0.000000, 3874.871582, 4234.358887, 3503.076904, 3867.179443, 3726.666504, 500.000000, 8145.000000, 8346.000000, 0.000000, 0.000000, 0.000000, 1.000000, 142.600006, 1557645228.871874, 4.000000, 4.000000, 4.000000, 4.000000, 4.000000
66.000000, 0.000000, 3883.076904, 4231.794922, 3508.205078, 3875.897461, 3731.794678, 16189.000000, 8143.000000, 8357.000000, 0.000000, 0.000000, 0.000000, 1.000000, 150.300018, 1557645228.879574, 4.000000, 4.000000, 4.000000, 4.000000, 4.000000
67.000000, 0.000000, 3867.692139, 4229.743652, 3521.025635, 3882.563965, 3724.615234, 500.000000, 8144.000000, 8342.000000, 0.000000, 0.000000, 0.000000, 1.000000, 158.300018, 1557645228.887574, 4.000000, 4.000000, 4.000000, 4.000000, 4.000000
68.000000, 0.000000, 3852.820313, 4234.358887, 3536.410156, 3870.769043, 3725.640869, 16077.000000, 8151.000000, 8346.000000, 0.000000, 0.000000, 0.000000, 1.000000, 166.200012, 1557645228.895474, 4.000000, 4.000000, 4.000000, 4.000000, 4.000000
69.000000, 0.000000, 3865.128174, 4222.563965, 3544.102539, 3856.410156, 3725.128174, 500.000000, 8149.000000, 8348.000000, 0.000000, 0.000000, 0.000000, 1.000000, 174.200012, 1557645228.903474, 4.000000, 4.000000, 4.000000, 4.000000, 4.000000
70.000000, 0.000000, 3866.153809, 4207.692383, 3542.051270, 3866.666504, 3705.640869, 16131.000000, 8144.000000, 8340.000000, 0.000000, 0.000000, 0.000000, 1.000000, 182.100006, 1557645228.911374, 4.000000, 4.000000, 4.000000, 4.000000, 4.000000
71.000000, 0.000000, 3847.179443, 4220.512695, 3542.563965, 3882.563965, 3690.769043, 500.000000, 8149.000000, 8348.000000, 0.000000, 0.000000, 0.000000, 1.000000, 189.899994, 1557645228.919174, 4.000000, 4.000000, 4.000000, 4.000000, 4.000000
72.000000, 0.000000, 3830.769043, 4227.692383, 3543.589600, 3868.205078, 3696.410156, 500.000000, 8151.000000, 8350.000000, 0.000000, 0.000000, 0.000000, 1.000000, 197.700012, 1557645228.926974, 4.000000, 4.000000, 4.000000, 4.000000, 4.000000
73.000000, 0.000000, 3827.179443, 4205.127930, 3539.487061, 3851.794678, 3710.769043, 16066.000000, 8149.000000, 8343.000000, 0.000000, 0.000000, 0.000000, 1.000000, 205.399994, 1557645228.934674, 4.000000, 4.000000, 4.000000, 4.000000, 4.000000
74.000000, 0.000000, 3847.692139, 4209.743652, 3542.563965, 3858.461426, 3728.205078, 500.000000, 8150.000000, 8353.000000, 0.000000, 0.000000, 0.000000, 1.000000, 213.199982, 1557645228.942474, 4.000000, 4.000000, 4.000000, 4.000000, 4.000000
75.000000, 0.000000, 3875.897461, 4225.641113, 3536.923096, 3861.538330, 3740.000000, 16174.000000, 8144.000000, 8363.000000, 0.000000, 0.000000, 0.000000, 1.000000, 221.199982, 1557645228.950474, 4.000000, 4.000000, 4.000000, 4.000000, 4.000000
76.000000, 0.000000, 3881.025635, 4205.641113, 3528.717773, 3865.128174, 3738.461426, 500.000000, 8143.000000, 8365.000000, 0.000000, 0.000000, 0.000000, 1.000000, 229.199982, 1557645228.958474, 4.000000, 4.000000, 4.000000, 4.000000, 4.000000
77.000000, 0.000000, 3871.794678, 4187.179199, 3554.358887, 3881.538330, 3742.051270, 500.000000, 8141.000000, 8357.000000, 0.000000, 0.000000, 0.000000, 1.000000, 237.100006, 1557645228.966374, 4.000000, 4.000000, 4.000000, 4.000000, 4.000000
78.000000, 0.000000, 3886.153809, 4207.692383, 3601.025635, 3881.538330, 3763.076904, 450.000000, 8144.000000, 8350.000000, 0.000000, 0.000000, 0.000000, 1.000000, 245.100006, 1557645228.974374, 4.000000, 4.000000, 4.000000, 4.000000, 4.000000
79.000000, 0.000000, 3904.615234, 4229.230469, 3626.153809, 3870.769043, 3777.435791, 16174.000000, 8147.000000, 8359.000000, 0.000000, 0.000000, 0.000000, 1.000000, 253.100006, 1557645228.982374, 4.000000, 4.000000, 4.000000, 4.000000, 4.000000
80.000000, 0.000000, 3878.974365, 4219.487305, 3618.461426, 3877.948730, 3761.538330, 450.000000, 8147.000000, 8348.000000, 0.000000, 0.000000, 0.000000, 1.000000, 260.899994, 1557645228.990174, 4.000000, 4.000000, 4.000000, 4.000000, 4.000000
81.000000, 0.000000, 3858.974365, 4200.512695, 3611.794678, 3880.000000, 3749.230713, 450.000000, 8141.000000, 8346.000000, 0.000000, 0.000000, 0.000000, 1.000000, 268.600006, 1557645228.997874, 4.000000, 4.000000, 4.000000, 4.000000, 4.000000
82.000000, 0.000000, 3881.538330, 4193.846191, 3640.000000, 3876.410156, 3764.102539, 450.000000, 8142.000000, 8350.000000, 0.000000, 0.000000, 0.000000, 1.000000, 276.600006, 1557645229.005874, 4.000000, 4.000000, 4.000000, 4.000000, 4.000000
83.000000, 0.000000, 3890.256348, 4206.666504, 3676.923096, 3884.102539, 3773.845947, 16174.000000, 8145.000000, 8353.000000, 0.000000, 0.000000, 0.000000, 1.000000, 284.399994, 1557645229.013674, 4.000000, 4.000000, 4.000000, 4.000000, 4.000000
84.000000, 0.000000, 3889.230713, 4217.948730, 3682.563965, 3896.410156, 3781.025635, 450.000000, 8142.000000, 8353.000000, 0.000000, 0.000000, 0.000000, 1.000000, 292.100006, 1557645229.021374, 4.000000, 4.000000, 4.000000, 4.000000, 4.000000
85.000000, 0.000000, 3925.640869, 4214.871582, 3691.794678, 3908.717773, 3810.769043, 450.000000, 8143.000000, 8351.000000, 0.000000, 0.000000, 0.000000, 1.000000, 300.100006, 1557645229.029374, 4.000000, 4.000000, 4.000000, 4.000000, 4.000000
86.000000, 0.000000, 3963.076904, 4220.000000, 3727.179443, 3914.871582, 3833.845947, 450.000000, 8146.000000, 8347.000000, 0.000000, 0.000000, 0.000000, 1.000000, 308.100006, 1557645229.037374, 4.000000, 4.000000, 4.000000, 4.000000, 4.000000
87.000000, 0.000000, 3969.743408, 4225.127930, 3769.230713, 3912.307617, 3831.794678, 16174.000000, 8152.000000, 8355.000000, 0.000000, 0.000000, 0.000000, 1.000000, 316.100006, 1557645229.045374, 4.000000, 4.000000, 4.000000, 4.000000, 4.000000
88.000000, 0.000000, 3977.435791, 4217.948730, 3853.845947, 3911.794678, 3831.281982, 450.000000, 8143.000000, 8362.000000, 0.000000, 0.000000, 0.000000, 1.000000, 323.800018, 1557645229.053074, 4.000000, 4.000000, 4.000000, 4.000000, 4.000000
89.000000, 0.000000, 3980.512695, 4230.769043, 3951.281982, 3913.845947, 3836.410156, 450.000000, 8142.000000, 8366.000000, 0.000000, 0.000000, 0.000000, 1.000000, 331.600006, 1557645229.060874, 4.000000, 4.000000, 4.000000, 4.000000, 4.000000
90.000000, 0.000000, 3965.128174, 4249.230469, 3961.025635, 3907.179443, 3833.333252, 450.000000, 8147.000000, 8355.000000, 0.000000, 0.000000, 0.000000, 1.000000, 339.399994, 1557645229.068674, 4.000000, 4.000000, 4.000000, 4.000000, 4.000000
91.000000, 0.000000, 3957.435791, 4232.307617, 3936.410156, 3919.487061, 3836.410156, 16174.000000, 8149.000000, 8360.000000, 0.000000, 0.000000, 0.000000, 1.000000, 347.399994, 1557645229.076674, 4.000000, 4.000000, 4.000000, 4.000000, 4.000000
92.000000, 0.000000, 3961.538330, 4211.794922, 3967.692139, 3942.051270, 3846.153809, 450.000000, 8146.000000, 8363.000000, 0.000000, 0.000000, 0.000000, 1.000000, 355.199982, 1557645229.084474, 4.000000, 4.000000, 4.000000, 4.000000, 4.000000
93.000000, 0.000000, 3951.794678, 4208.717773, 3985.128174, 3934.358887, 3845.640869, 450.000000, 8148.000000, 8367.000000, 0.000000, 0.000000, 0.000000, 1.000000, 363.199982, 1557645229.092474, 4.000000, 4.000000, 4.000000, 4.000000, 4.000000
94.000000, 0.000000, 3952.307617, 4220.000000, 3972.307617, 3926.666504, 3850.769043, 450.000000, 8152.000000, 8359.000000, 0.000000, 0.000000, 0.000000, 1.000000, 371.199982, 1557645229.100474, 4.000000, 4.000000, 4.000000, 4.000000, 4.000000
95.000000, 0.000000, 3983.589600, 4254.358887, 4004.102539, 3953.845947, 3875.897461, 16174.000000, 8149.000000, 8362.000000, 0.000000, 0.000000, 0.000000, 1.000000, 379.100006, 1557645229.108374, 4.000000, 4.000000, 4.000000, 4.000000, 4.000000
96.000000, 0.000000, 3982.563965, 4266.666504, 4029.743408, 3959.487061, 3881.025635, 450.000000, 8149.000000, 8355.000000, 0.000000, 0.000000, 0.000000, 1.000000, 386.899994, 1557645229.116174, 4.000000, 4.000000, 4.000000, 4.000000, 4.000000
97.000000, 0.000000, 3954.358887, 4226.153809, 4010.256348, 3917.435791, 3863.076904, 450.000000, 8143.000000, 8355.000000, 0.000000, 0.000000, 0.000000, 1.000000, 394.699982, 1557645229.123974, 4.000000, 4.000000, 4.000000, 4.000000, 4.000000
98.000000, 0.000000, 3976.410156, 4202.563965, 4018.461426, 3910.256348, 3873.845947, 450.000000, 8145.000000, 8358.000000, 0.000000, 0.000000, 0.000000, 1.000000, 402.500031, 1557645229.131774, 4.000000, 4.000000, 4.000000, 4.000000, 4.000000
99.000000, 0.000000, 4024.615234, 4227.692383, 4045.640869, 3938.461426, 3909.743408, 16174.000000, 8148.000000, 8354.000000, 0.000000, 0.000000, 0.000000, 1.000000, 410.399994, 1557645229.139674, 4.000000, 4.000000, 4.000000, 4.000000, 4.000000
100.000000, 0.000000, 4030.256348, 4241.025391, 4030.256348, 3936.923096, 3924.102539, 450.000000, 8154.000000, 8352.000000, 0.000000, 0.000000, 0.000000, 1.000000, 418.399994, 1557645229.147674, 4.000000, 4.000000, 4.000000, 4.000000, 4.000000
101.000000, 0.000000, 4024.102539, 4236.922852, 4023.076904, 3924.615234, 3917.435791, 450.000000, 8147.000000, 8358.000000, 0.000000, 0.000000, 0.000000, 1.000000, 426.199982, 1557645229.155474, 4.000000, 4.000000, 4.000000, 4.000000, 4.000000
102.000000, 0.000000, 4023.589600, 4234.871582, 4049.230713, 3924.102539, 3910.769043, 450.000000, 8151.000000, 8356.000000, 0.000000, 0.000000, 0.000000, 1.000000, 434.199982, 1557645229.163474, 4.000000, 4.000000, 4.000000, 4.000000, 4.000000
103.000000, 0.000000, 4003.076904, 4243.589844, 4051.281982, 3926.666504, 3911.794678, 16174.000000, 8156.000000, 8351.000000, 0.000000, 0.000000, 0.000000, 1.000000, 442.100006, 1557645229.171374, 4.000000, 4.000000, 4.000000, 4.000000, 4.000000
104.000000, 0.000000, 3989.230713, 4255.384277, 4026.153809, 3929.743408, 3914.358887, 450.000000, 8150.000000, 8340.000000, 0.000000, 0.000000, 0.000000, 1.000000, 450.100006, 1557645229.179374, 4.000000, 4.000000, 4.000000, 4.000000, 4.000000
105.000000, 0.000000, 3984.615234, 4238.974121, 4007.179443, 3905.128174, 3900.512695, 450.000000, 8152.000000, 8354.000000, 0.000000, 0.000000, 0.000000, 1.000000, 457.899994, 1557645229.187174, 4.000000, 4.000000, 4.000000, 4.000000, 4.000000
106.000000, 0.000000, 3976.923096, 4213.333008, 4006.666504, 3866.666504, 3886.153809, 450.000000, 8152.000000, 8353.000000, 0.000000, 0.000000, 0.000000, 1.000000, 465.699982, 1557645229.194974, 4.000000, 4.000000, 4.000000, 4.000000, 4.000000
107.000000, 0.000000, 3985.128174, 4226.666504, 4021.538330, 3895.897461, 3898.974365, 16174.000000, 8149.000000, 8345.000000, 0.000000, 0.000000, 0.000000, 1.000000, 473.399994, 1557645229.202674, 4.000000, 4.000000, 4.000000, 4.000000, 4.000000
108.000000, 0.000000, 4003.589600, 4257.436035, 4037.435791, 3950.769043, 3927.179443, 450.000000, 8148.000000, 8344.000000, 0.000000, 0.000000, 0.000000, 1.000000, 481.199982, 1557645229.210474, 4.000000, 4.000000, 4.000000, 4.000000, 4.000000
109.000000, 0.000000, 4000.000000, 4252.820313, 4041.025635, 3947.179443, 3929.743408, 450.000000, 8151.000000, 8347.000000, 0.000000, 0.000000, 0.000000, 1.000000, 489.100006, 1557645229.218374, 4.000000, 4.000000, 4.000000, 4.000000, 4.000000
110.000000, 0.000000, 3985.128174, 4240.000000, 4042.563965, 3931.794678, 3909.743408, 450.000000, 8147.000000, 8352.000000, 0.000000, 0.000000, 0.000000, 1.000000, 497.000031, 1557645229.226274, 4.000000, 4.000000, 4.000000, 4.000000, 4.000000
111.000000, 0.000000, 3986.666504, 4242.051270, 4044.615234, 3938.974365, 3913.333252, 16174.000000, 8148.000000, 8348.000000, 0.000000, 0.000000, 0.000000, 1.000000, 505.000031, 1557645229.234274, 4.000000, 4.000000, 4.000000, 4.000000, 4.000000
112.000000, 0.000000, 3980.512695, 4234.871582, 4039.487061, 3912.307617, 3920.000000, 450.000000, 8148.000000, 8346.000000, 0.000000, 0.000000, 0.000000, 1.000000, 513.000031, 1557645229.242274, 4.000000, 4.000000, 4.000000, 4.000000, 4.000000
113.000000, 0.000000, 3962.051270, 4231.794922, 4035.384521, 3882.051270, 3899.487061, 450.000000, 8149.000000, 8349.000000, 0.000000, 0.000000, 0.000000, 1.000000, 520.800018, 1557645229.250074, 4.000000, 4.000000, 4.000000, 4.000000, 4.000000
114.000000, 0.000000, 3954.358887, 4246.666504, 4032.820313, 3896.923096, 3895.384521, 450.000000, 8148.000000, 8354.000000, 0.000000, 0.000000, 0.000000, 1.000000, 528.500031, 1557645229.257774, 4.000000, 4.000000, 4.000000, 4.000000, 4.000000
115.000000, 0.000000, 3956.410156, 4257.436035, 4029.743408, 3904.102539, 3917.435791, 16174.000000, 8146.000000, 8356.000000, 0.000000, 0.000000, 0.000000, 1.000000, 536.300018, 1557645229.265574, 4.000000, 4.000000, 4.000000, 4.000000, 4.000000
116.000000, 0.000000, 3958.974365, 4251.281738, 4021.538330, 3893.845947, 3905.640869, 450.000000, 8147.000000, 8347.000000, 0.000000, 0.000000, 0.000000, 1.000000, 544.300018, 1557645229.273574, 4.000000, 4.000000, 4.000000, 4.000000, 4.000000
117.000000, 0.000000, 3956.923096, 4248.205078, 4010.256348, 3891.281982, 3872.820313, 450.000000, 8147.000000, 8348.000000, 0.000000, 0.000000, 0.000000, 1.000000, 552.300018, 1557645229.281574, 4.000000, 4.000000, 4.000000, 4.000000, 4.000000
118.000000, 0.000000, 3952.307617, 4242.051270, 4012.307617, 3877.435791, 3877.435791, 450.000000, 8142.000000, 8361.000000, 0.000000, 0.000000, 0.000000, 1.000000, 560.199982, 1557645229.289474, 4.000000, 4.000000, 4.000000, 4.000000, 4.000000
119.000000, 0.000000, 3952.307617, 4246.666504, 4029.743408, 3862.563965, 3900.000000, 16174.000000, 8137.000000, 8363.000000, 0.000000, 0.000000, 0.000000, 1.000000, 568.199982, 1557645229.297474, 4.000000, 4.000000, 4.000000, 4.000000, 4.000000
120.000000, 0.000000, 3960.512695, 4267.179199, 4037.435791, 3875.384521, 3897.435791, 450.000000, 8143.000000, 8355.000000, 0.000000, 0.000000, 0.000000, 1.000000, 576.199982, 1557645229.305474, 4.000000, 4.000000, 4.000000, 4.000000, 4.000000
121.000000, 0.000000, 3964.102539, 4268.205078, 4034.358887, 3876.923096, 3882.051270, 450.000000, 8148.000000, 8352.000000, 0.000000, 0.000000, 0.000000, 1.000000, 583.899994, 1557645229.313174, 4.000000, 4.000000, 4.000000, 4.000000, 4.000000
122.000000, 0.000000, 3949.743408, 4248.717773, 4034.871582, 3857.435791, 3875.384521, 450.000000, 8147.000000, 8362.000000, 0.000000, 0.000000, 0.000000, 1.000000, 591.699982, 1557645229.320974, 4.000000, 4.000000, 4.000000, 4.000000, 4.000000
123.000000, 0.000000, 3932.307617, 4236.410156, 4024.102539, 3862.051270, 3875.384521, 16174.000000, 8148.000000, 8364.000000, 0.000000, 0.000000, 0.000000, 1.000000, 599.500031, 1557645229.328774, 4.000000, 4.000000, 4.000000, 4.000000, 4.000000
124.000000, 0.000000, 3934.358887, 4251.794922, 4014.871582, 3867.179443, 3878.974365, 450.000000, 8147.000000, 8359.000000, 0.000000, 0.000000, 0.000000, 1.000000, 607.500031, 1557645229.336774, 4.000000, 4.000000, 4.000000, 4.000000, 4.000000
125.000000, 0.000000, 3940.000000, 4275.897461, 4026.153809, 3865.128174, 3881.538330, 450.000000, 8149.000000, 8351.000000, 0.000000, 0.000000, 0.000000, 1.000000, 615.199982, 1557645229.344474, 4.000000, 4.000000, 4.000000, 4.000000, 4.000000
126.000000, 0.000000, 3921.025635, 4269.743652, 4025.128174, 3862.563965, 3882.563965, 450.000000, 8149.000000, 8350.000000, 0.000000, 0.000000, 0.000000, 1.000000, 623.100006, 1557645229.352374, 4.000000, 4.000000, 4.000000, 4.000000, 4.000000
127.000000, 0.000000, 3904.615234, 4244.102539, 4009.743408, 3848.717773, 3876.923096, 16174.000000, 8156.000000, 8351.000000, 0.000000, 0.000000, 0.000000, 1.000000, 631.100006, 1557645229.360374, 4.000000, 4.000000, 4.000000, 4.000000, 4.000000
128.000000, 0.000000, 3908.717773, 4251.281738, 4025.128174, 3845.128174, 3868.205078, 500.000000, 8151.000000, 8354.000000, 0.000000, 0.000000, 0.000000, 1.000000, 639.100006, 1557645229.368374, 4.000000, 4.000000, 4.000000, 4.000000, 4.000000
0.000000, 0.000000, 3906.153809, 4277.948730, 4050.256348, 3850.256348, 3869.743408, 500.000000, 8160.000000, 8349.000000, 0.000000, 0.000000, 0.000000, 1.000000, 647.000031, 1557645229.376274, 4.000000, 4.000000, 4.000000, 4.000000, 4.000000
1.000000, 0.000000, 3891.281982, 4271.794922, 4037.948730, 3837.435791, 3878.461426, 500.000000, 8156.000000, 8343.000000, 0.000000, 0.000000, 0.000000, 1.000000, 654.800018, 1557645229.384074, 4.000000, 4.000000, 4.000000, 4.000000, 4.000000
2.000000, 0.000000, 3880.512695, 4258.974121, 4023.076904, 3811.281982, 3880.512695, 16187.000000, 8154.000000, 8355.000000, 0.000000, 0.000000, 0.000000, 1.000000, 662.600006, 1557645229.391874, 4.000000, 4.000000, 4.000000, 4.000000, 4.000000
3.000000, 0.000000, 3874.871582, 4257.948730, 4024.615234, 3806.666504, 3873.845947, 500.000000, 8155.000000, 8360.000000, 0.000000, 0.000000, 0.000000, 1.000000, 670.399994, 1557645229.399674, 4.000000, 4.000000, 4.000000, 4.000000, 4.000000
4.000000, 0.000000, 3887.179443, 4252.307617, 4023.076904, 3829.743408, 3875.897461, 16078.000000, 8159.000000, 8352.000000, 0.000000, 0.000000, 0.000000, 1.000000, 678.300018, 1557645229.407574, 4.000000, 4.000000, 4.000000, 4.000000, 4.000000
5.000000, 0.000000, 3908.717773, 4271.794922, 4030.256348, 3845.640869, 3890.769043, 500.000000, 8149.000000, 8357.000000, 0.000000, 0.000000, 0.000000, 1.000000, 686.199982, 1557645229.415474, 4.000000, 4.000000, 4.000000, 4.000000, 4.000000
6.000000, 0.000000, 3914.358887, 4294.871582, 4034.871582, 3819.487061, 3903.589600, 16117.000000, 8147.000000, 8368.000000, 0.000000, 0.000000, 0.000000, 1.000000, 694.200006, 1557645229.423474, 4.000000, 4.000000, 4.000000, 4.000000, 4.000000
7.000000, 0.000000, 3912.307617, 4271.794922, 4011.794678, 3794.871582, 3887.692139, 500.000000, 8149.000000, 8362.000000, 0.000000, 0.000000, 0.000000, 1.000000, 702.100006, 1557645229.431374, 4.000000, 4.000000, 4.000000, 4.000000, 4.000000
8.000000, 0.000000, 3894.871582, 4247.692383, 4000.000000, 3816.923096, 3870.769043, 500.000000, 8147.000000, 8359.000000, 0.000000, 0.000000, 0.000000, 1.000000, 710.100006, 1557645229.439374, 4.000000, 4.000000, 4.000000, 4.000000, 4.000000
9.000000, 0.000000, 3868.205078, 4265.127930, 4030.769043, 3838.974365, 3901.538330, 16072.000000, 8149.000000, 8358.000000, 0.000000, 0.000000, 0.000000, 1.000000, 717.900005, 1557645229.447174, 4.000000, 4.000000, 4.000000, 4.000000, 4.000000
10.000000, 0.000000, 3856.923096, 4282.051270, 4051.281982, 3823.589600, 3921.025635, 500.000000, 8150.000000, 8355.000000, 0.000000, 0.000000, 0.000000, 1.000000, 725.700005, 1557645229.454974, 4.000000, 4.000000, 4.000000, 4.000000, 4.000000
11.000000, 0.000000, 3867.692139, 4273.333008, 4026.666504, 3798.461426, 3901.538330, 16173.000000, 8151.000000, 8360.000000, 0.000000, 0.000000, 0.000000, 1.000000, 733.400005, 1557645229.462674, 4.000000, 4.000000, 4.000000, 4.000000, 4.000000
12.000000, 0.000000, 3891.794678, 4274.358887, 4018.974365, 3790.769043, 3928.717773, 500.000000, 8148.000000, 8362.000000, 0.000000, 0.000000, 0.000000, 1.000000, 741.200005, 1557645229.470474, 4.000000, 4.000000, 4.000000, 4.000000, 4.000000
13.000000, 0.000000, 3919.487061, 4292.820313, 4047.692139, 3818.974365, 3987.692139, 500.000000, 8156.000000, 8353.000000, 0.000000, 0.000000, 0.000000, 1.000000, 749.200005, 1557645229.478474, 4.000000, 4.000000, 4.000000, 4.000000, 4.000000
14.000000, 0.000000, 3912.307617, 4289.230469, 4054.358887, 3840.000000, 3967.692139, 450.000000, 8151.000000, 8352.000000, 0.000000, 0.000000, 0.000000, 1.000000, 757.200005, 1557645229.486474, 4.000000, 4.000000, 4.000000, 4.000000, 4.000000
15.000000, 0.000000, 3870.256348, 4263.589844, 4037.435791, 3816.923096, 3915.897461, 16173.000000, 8146.000000, 8358.000000, 0.000000, 0.000000, 0.000000, 1.000000, 765.100006, 1557645229.494374, 4.000000, 4.000000, 4.000000, 4.000000, 4.000000
16.000000, 0.000000, 3861.025635, 4268.205078, 4037.948730, 3805.640869, 3925.640869, 0.000000, 8153.000000, 8360.000000, 0.000000, 0.000000, 0.000000, 1.000000, 773.100006, 1557645229.502374, 4.000000, 4.000000, 4.000000, 4.000000, 4.000000
17.000000, 0.000000, 3869.230713, 4286.153809, 4029.743408, 3810.256348, 3941.025635, 0.000000, 8158.000000, 8349.000000, 0.000000, 0.000000, 0.000000, 1.000000, 780.900009, 1557645229.510174, 4.000000, 4.000000, 4.000000, 4.000000, 4.000000
18.000000, 0.000000, 3860.000000, 4280.512695, 4014.871582, 3802.563965, 3924.102539, 0.000000, 8155.000000, 8353.000000, 0.000000, 0.000000, 0.000000, 1.000000, 788.600006, 1557645229.517874, 4.000000, 4.000000, 4.000000, 4.000000, 4.000000
19.000000, 0.000000, 3865.128174, 4276.410156, 4020.512695, 3816.410156, 3918.974365, 0.000000, 8152.000000, 8360.000000, 0.000000, 0.000000, 0.000000, 1.000000, 796.400009, 1557645229.525674, 4.000000, 4.000000, 4.000000, 4.000000, 4.000000
20.000000, 0.000000, 3880.000000, 4277.436035, 4023.589600, 3831.281982, 3929.743408, 0.000000, 8143.000000, 8353.000000, 0.000000, 0.000000, 0.000000, 1.000000, 804.400009, 1557645229.533674, 4.000000, 4.000000, 4.000000, 4.000000, 4.000000
21.000000, 0.000000, 3865.128174, 4271.794922, 4027.179443, 3790.256348, 3931.281982, 0.000000, 8148.000000, 8354.000000, 0.000000, 0.000000, 0.000000, 1.000000, 812.400009, 1557645229.541674, 4.000000, 4.000000, 4.000000, 4.000000, 4.000000
22.000000, 0.000000, 3843.589600, 4278.974121, 4046.153809, 3771.281982, 3924.615234, 0.000000, 8151.000000, 8357.000000, 0.000000, 0.000000, 0.000000, 1.000000, 820.100006, 1557645229.549374, 4.000000, 4.000000, 4.000000, 4.000000, 4.000000
23.000000, 0.000000, 3845.640869, 4281.025391, 4042.563965, 3808.717773, 3916.923096, 0.000000, 8150.000000, 8362.000000, 0.000000, 0.000000, 0.000000, 1.000000, 828.100006, 1557645229.557374, 4.000000, 4.000000, 4.000000, 4.000000, 4.000000
24.000000, 0.000000, 3849.230713, 4269.743652, 4024.102539, 3828.205078, 3907.179443, 0.000000, 8151.000000, 8364.000000, 0.000000, 0.000000, 0.000000, 1.000000, 836.100006, 1557645229.565374, 4.000000, 4.000000, 4.000000, 4.000000, 4.000000
25.000000, 0.000000, 3849.743408, 4285.641113, 4040.512695, 3833.333252, 3909.230713, 0.000000, 8147.000000, 8366.000000, 0.000000, 0.000000, 0.000000, 1.000000, 844.100006, 1557645229.573374, 4.000000, 4.000000, 4.000000, 4.000000, 4.000000
26.000000, 0.000000, 3848.205078, 4301.025391, 4055.897217, 3837.948730, 3923.589600, 0.000000, 8150.000000, 8359.000000, 0.000000, 0.000000, 0.000000, 1.000000, 851.800003, 1557645229.581074, 4.000000, 4.000000, 4.000000, 4.000000, 4.000000
27.000000, 0.000000, 3844.615234, 4283.589844, 4045.640869, 3818.974365, 3926.153809, 0.000000, 8145.000000, 8366.000000, 0.000000, 0.000000, 0.000000, 1.000000, 859.700012, 1557645229.588974, 4.000000, 4.000000, 4.000000, 4.000000, 4.000000
28.000000, 0.000000, 3830.256348, 4273.333008, 4045.640869, 3806.666504, 3907.179443, 0.000000, 8146.000000, 8378.000000, 0.000000, 0.000000, 0.000000, 1.000000, 867.500000, 1557645229.596774, 4.000000, 4.000000, 4.000000, 4.000000, 4.000000
29.000000, 0.000000, 3802.563965, 4278.974121, 4037.948730, 3818.461426, 3902.051270, 0.000000, 8141.000000, 8374.000000, 0.000000, 0.000000, 0.000000, 1.000000, 875.300003, 1557645229.604574, 4.000000, 4.000000, 4.000000, 4.000000, 4.000000
30.000000, 0.000000, 3834.871582, 4282.051270, 4022.563965, 3812.820313, 3930.256348, 0.000000, 8133.000000, 8355.000000, 0.000000, 0.000000, 0.000000, 1.000000, 883.200012, 1557645229.612474, 4.000000, 4.000000, 4.000000, 4.000000, 4.000000
31.000000, 0.000000, 3868.717773, 4281.538574, 4037.435791, 3789.230713, 3928.717773, 0.000000, 8135.000000, 8352.000000, 0.000000, 0.000000, 0.000000, 1.000000, 891.200012, 1557645229.620474, 4.000000, 4.000000, 4.000000, 4.000000, 4.000000
32.000000, 0.000000, 3803.076904, 4279.487305, 4048.205078, 3801.025635, 3895.384521, 0.000000, 8133.000000, 8356.000000, 0.000000, 0.000000, 0.000000, 1.000000, 899.100006, 1557645229.628374, 4.000000, 4.000000, 4.000000, 4.000000, 4.000000
33.000000, 0.000000, 3765.640869, 4268.205078, 4021.538330, 3821.538330, 3906.153809, 0.000000, 8133.000000, 8352.000000, 0.000000, 0.000000, 0.000000, 1.000000, 907.000000, 1557645229.636274, 4.000000, 4.000000, 4.000000, 4.000000, 4.000000
34.000000, 0.000000, 3826.153809, 4268.205078, 4016.410156, 3809.230713, 3932.820313, 0.000000, 8128.000000, 8342.000000, 0.000000, 0.000000, 0.000000, 1.000000, 914.800003, 1557645229.644074, 4.000000, 4.000000, 4.000000, 4.000000, 4.000000
35.000000, 0.000000, 3846.153809, 4294.871582, 4055.897217, 3801.025635, 3920.000000, 0.000000, 8135.000000, 8345.000000, 0.000000, 0.000000, 0.000000, 1.000000, 922.600006, 1557645229.651874, 4.000000, 4.000000, 4.000000, 4.000000, 4.000000
36.000000, 0.000000, 3827.179443, 4312.307617, 4089.743408, 3821.025635, 3931.281982, 0.000000, 8149.000000, 8349.000000, 0.000000, 0.000000, 0.000000, 1.000000, 930.400009, 1557645229.659674, 4.000000, 4.000000, 4.000000, 4.000000, 4.000000
37.000000, 0.000000, 3848.205078, 4299.487305, 4093.845947, 3834.871582, 3971.281982, 0.000000, 8147.000000, 8340.000000, 0.000000, 0.000000, 0.000000, 1.000000, 938.200012, 1557645229.667474, 4.000000, 4.000000, 4.000000, 4.000000, 4.000000
38.000000, 0.000000, 3836.923096, 4291.281738, 4076.923096, 3835.384521, 3958.461426, 0.000000, 8141.000000, 8339.000000, 0.000000, 0.000000, 0.000000, 1.000000, 946.200012, 1557645229.675474, 4.000000, 4.000000, 4.000000, 4.000000, 4.000000
39.000000, 0.000000, 3804.615234, 4295.384277, 4083.589600, 3835.384521, 3931.281982, 0.000000, 8146.000000, 8338.000000, 0.000000, 0.000000, 0.000000, 1.000000, 954.200012, 1557645229.683474, 4.000000, 4.000000, 4.000000, 4.000000, 4.000000
40.000000, 0.000000, 3809.230713, 4287.179199, 4126.153809, 3813.845947, 3943.076904, 0.000000, 8143.000000, 8329.000000, 0.000000, 0.000000, 0.000000, 1.000000, 962.100006, 1557645229.691374, 4.000000, 4.000000, 4.000000, 4.000000, 4.000000
41.000000, 0.000000, 3794.358887, 4275.384277, 4144.615234, 3797.948730, 3942.051270, 0.000000, 8141.000000, 8339.000000, 0.000000, 0.000000, 0.000000, 1.000000, 970.000000, 1557645229.699274, 4.000000, 4.000000, 4.000000, 4.000000, 4.000000
42.000000, 0.000000, 3781.025635, 4289.743652, 4142.563965, 3827.179443, 3937.948730, 0.000000, 8147.000000, 8355.000000, 0.000000, 0.000000, 0.000000, 1.000000, 978.000000, 1557645229.707274, 4.000000, 4.000000, 4.000000, 4.000000, 4.000000
43.000000, 0.000000, 3804.615234, 4324.615234, 4165.127930, 3855.384521, 3967.179443, 0.000000, 8153.000000, 8355.000000, 0.000000, 0.000000, 0.000000, 1.000000, 985.800018, 1557645229.715074, 4.000000, 4.000000, 4.000000, 4.000000, 4.000000
44.000000, 0.000000, 3816.410156, 4316.922852, 4180.000000, 3851.794678, 3975.897217, 0.000000, 8150.000000, 8348.000000, 0.000000, 0.000000, 0.000000, 1.000000, 993.500000, 1557645229.722774, 4.000000, 4.000000, 4.000000, 4.000000, 4.000000
45.000000, 0.000000, 3826.153809, 4271.794922, 4151.281738, 3843.076904, 3975.384521, 0.000000, 8144.000000, 8358.000000, 0.000000, 0.000000, 0.000000, 2.000000, 1.300018, 1557645229.730574, 4.000000, 4.000000, 4.000000, 4.000000, 4.000000
46.000000, 0.000000, 3867.179443, 4290.769043, 4138.461426, 3845.128174, 4032.820313, 0.000000, 8149.000000, 8355.000000, 0.000000, 0.000000, 0.000000, 2.000000, 9.300018, 1557645229.738574, 4.000000, 4.000000, 4.000000, 4.000000, 4.000000
47.000000, 0.000000, 3841.538330, 4335.384277, 4155.384277, 3856.410156, 4055.897217, 0.000000, 8145.000000, 8339.000000, 0.000000, 0.000000, 0.000000, 2.000000, 17.100006, 1557645229.746374, 4.000000, 4.000000, 4.000000, 4.000000, 4.000000
48.000000, 0.000000, 3749.230713, 4299.487305, 4154.358887, 3854.358887, 3996.923096, 0.000000, 8147.000000, 8347.000000, 0.000000, 0.000000, 0.000000, 2.000000, 25.000000, 1557645229.754274, 4.000000, 4.000000, 4.000000, 4.000000, 4.000000
49.000000, 0.000000, 3749.743408, 4271.794922, 4154.871582, 3831.281982, 3992.820313, 0.000000, 8142.000000, 8355.000000, 0.000000, 0.000000, 0.000000, 2.000000, 33.000000, 1557645229.762274, 4.000000, 4.000000, 4.000000, 4.000000, 4.000000
50.000000, 0.000000, 3800.512695, 4304.102539, 4172.820313, 3829.743408, 4043.076904, 0.000000, 8139.000000, 8363.000000, 0.000000, 0.000000, 0.000000, 2.000000, 41.000000, 1557645229.770274, 4.000000, 4.000000, 4.000000, 4.000000, 4.000000
51.000000, 0.000000, 3753.333252, 4286.153809, 4174.871582, 3837.948730, 4022.563965, 0.000000, 8138.000000, 8370.000000, 0.000000, 0.000000, 0.000000, 2.000000, 48.800018, 1557645229.778074, 4.000000, 4.000000, 4.000000, 4.000000, 4.000000
52.000000, 0.000000, 3697.948730, 4240.512695, 4166.153809, 3825.640869, 3989.230713, 0.000000, 8142.000000, 8375.000000, 0.000000, 0.000000, 0.000000, 2.000000, 56.500000, 1557645229.785774, 4.000000, 4.000000, 4.000000, 4.000000, 4.000000
53.000000, 0.000000, 3732.820313, 4268.205078, 4184.102539, 3826.153809, 4015.384521, 0.000000, 8147.000000, 8369.000000, 0.000000, 0.000000, 0.000000, 2.000000, 64.300018, 1557645229.793574, 4.000000, 4.000000, 4.000000, 4.000000, 4.000000
54.000000, 0.000000, 3747.179443, 4308.717773, 4203.589844, 3841.538330, 4020.512695, 0.000000, 8139.000000, 8373.000000, 0.000000, 0.000000, 0.000000, 2.000000, 72.200012, 1557645229.801474, 4.000000, 4.000000, 4.000000, 4.000000, 4.000000
55.000000, 0.000000, 3689.743408, 4280.512695, 4189.230469, 3841.538330, 4001.025635, 0.000000, 8135.000000, 8383.000000, 0.000000, 0.000000, 0.000000, 2.000000, 80.200012, 1557645229.809474, 4.000000, 4.000000, 4.000000, 4.000000, 4.000000
56.000000, 0.000000, 3669.230713, 4243.589844, 4168.205078, 3842.563965, 4014.358887, 0.000000, 8133.000000, 8379.000000, 0.000000, 0.000000, 0.000000, 2.000000, 88.000000, 1557645229.817274, 4.000000, 4.000000, 4.000000, 4.000000, 4.000000
57.000000, 0.000000, 3705.640869, 4262.051270, 4164.102539, 3847.179443, 4020.000000, 0.000000, 8139.000000, 8362.000000, 0.000000, 0.000000, 0.000000, 2.000000, 96.000000, 1557645229.825274, 4.000000, 4.000000, 4.000000, 4.000000, 4.000000
58.000000, 0.000000, 3714.871582, 4279.487305, 4166.153809, 3848.717773, 4008.205078, 0.000000, 8141.000000, 8373.000000, 0.000000, 0.000000, 0.000000, 2.000000, 104.000000, 1557645229.833274, 4.000000, 4.000000, 4.000000, 4.000000, 4.000000
59.000000, 0.000000, 3693.333252, 4250.256348, 4170.769043, 3851.794678, 4027.179443, 0.000000, 8140.000000, 8372.000000, 0.000000, 0.000000, 0.000000, 2.000000, 111.899994, 1557645229.841174, 4.000000, 4.000000, 4.000000, 4.000000, 4.000000
60.000000, 0.000000, 3696.410156, 4237.436035, 4188.205078, 3833.845947, 4049.743408, 0.000000, 8135.000000, 8361.000000, 0.000000, 0.000000, 0.000000, 2.000000, 119.700012, 1557645229.848974, 4.000000, 4.000000, 4.000000, 4.000000, 4.000000
61.000000, 0.000000, 3716.410156, 4264.615234, 4203.076660, 3827.179443, 4043.076904, 0.000000, 8142.000000, 8363.000000, 0.000000, 0.000000, 0.000000, 2.000000, 127.500000, 1557645229.856774, 4.000000, 4.000000, 4.000000, 4.000000, 4.000000
62.000000, 0.000000, 3717.435791, 4285.641113, 4193.333008, 3849.230713, 4043.589600, 0.000000, 8134.000000, 8368.000000, 0.000000, 0.000000, 0.000000, 2.000000, 135.300018, 1557645229.864574, 4.000000, 4.000000, 4.000000, 4.000000, 4.000000
63.000000, 0.000000, 3716.410156, 4280.000000, 4164.615234, 3836.923096, 4043.589600, 0.000000, 8134.000000, 8362.000000, 0.000000, 0.000000, 0.000000, 2.000000, 143.200012, 1557645229.872474, 4.000000, 4.000000, 4.000000, 4.000000, 4.000000
64.000000, 0.000000, 3714.871582, 4244.102539, 4133.846191, 3814.358887, 4021.025635, 500.000000, 8136.000000, 8360.000000, 0.000000, 0.000000, 0.000000, 2.000000, 151.100006, 1557645229.880374, 4.000000, 4.000000, 4.000000, 4.000000, 4.000000
65.000000, 0.000000, 3708.205078, 4232.307617, 4123.076660, 3836.410156, 4023.076904, 500.000000, 8129.000000, 8361.000000, 0.000000, 0.000000, 0.000000, 2.000000, 159.100006, 1557645229.888374, 4.000000, 4.000000, 4.000000, 4.000000, 4.000000
66.000000, 0.000000, 3733.333252, 4274.871582, 4127.179199, 3846.153809, 4054.871582, 16200.000000, 8135.000000, 8357.000000, 0.000000, 0.000000, 0.000000, 2.000000, 167.100006, 1557645229.896374, 4.000000, 4.000000, 4.000000, 4.000000, 4.000000
67.000000, 0.000000, 3754.358887, 4285.641113, 4132.307617, 3834.871582, 4060.512695, 500.000000, 8136.000000, 8355.000000, 0.000000, 0.000000, 0.000000, 2.000000, 174.800018, 1557645229.904074, 4.000000, 4.000000, 4.000000, 4.000000, 4.000000
68.000000, 0.000000, 3737.948730, 4243.076660, 4134.871582, 3845.128174, 4047.692139, 16096.000000, 8133.000000, 8363.000000, 0.000000, 0.000000, 0.000000, 2.000000, 182.600006, 1557645229.911874, 4.000000, 4.000000, 4.000000, 4.000000, 4.000000
69.000000, 0.000000, 3729.230713, 4220.512695, 4134.871582, 3843.589600, 4043.589600, 500.000000, 8132.000000, 8366.000000, 0.000000, 0.000000, 0.000000, 2.000000, 190.399994, 1557645229.919674, 4.000000, 4.000000, 4.000000, 4.000000, 4.000000
70.000000, 0.000000, 3750.256348, 4232.307617, 4143.076660, 3833.333252, 4045.640869, 16108.000000, 8141.000000, 8353.000000, 0.000000, 0.000000, 0.000000, 2.000000, 198.100006, 1557645229.927374, 4.000000, 4.000000, 4.000000, 4.000000, 4.000000
71.000000, 0.000000, 3767.179443, 4246.153809, 4162.051270, 3849.743408, 4056.923096, 500.000000, 8136.000000, 8349.000000, 0.000000, 0.000000, 0.000000, 2.000000, 206.100006, 1557645229.935374, 4.000000, 4.000000, 4.000000, 4.000000, 4.000000
72.000000, 0.000000, 3785.640869, 4267.179199, 4189.230469, 3875.897461, 4076.923096, 500.000000, 8130.000000, 8354.000000, 0.000000, 0.000000, 0.000000, 2.000000, 214.100006, 1557645229.943374, 4.000000, 4.000000, 4.000000, 4.000000, 4.000000
73.000000, 0.000000, 3799.487061, 4268.717773, 4204.615234, 3880.512695, 4077.435791, 16070.000000, 8139.000000, 8345.000000, 0.000000, 0.000000, 0.000000, 2.000000, 222.100006, 1557645229.951374, 4.000000, 4.000000, 4.000000, 4.000000, 4.000000
74.000000, 0.000000, 3786.153809, 4244.102539, 4189.743652, 3871.281982, 4055.897217, 500.000000, 8134.000000, 8341.000000, 0.000000, 0.000000, 0.000000, 2.000000, 230.000031, 1557645229.959274, 4.000000, 4.000000, 4.000000, 4.000000, 4.000000
75.000000, 0.000000, 3793.845947, 4253.333008, 4175.897461, 3855.384521, 4054.358887, 16165.000000, 8139.000000, 8351.000000, 0.000000, 0.000000, 0.000000, 2.000000, 238.000031, 1557645229.967274, 4.000000, 4.000000, 4.000000, 4.000000, 4.000000
76.000000, 0.000000, 3832.820313, 4288.205078, 4200.000000, 3858.974365, 4081.538330, 500.000000, 8138.000000, 8341.000000, 0.000000, 0.000000, 0.000000, 2.000000, 245.800018, 1557645229.975074, 4.000000, 4.000000, 4.000000, 4.000000, 4.000000
77.000000, 0.000000, 3847.692139, 4282.563965, 4218.461426, 3887.179443, 4090.256348, 500.000000, 8135.000000, 8336.000000, 0.000000, 0.000000, 0.000000, 2.000000, 253.600006, 1557645229.982874, 4.000000, 4.000000, 4.000000, 4.000000, 4.000000
78.000000, 0.000000, 3833.845947, 4261.538574, 4206.153809, 3878.974365, 4064.102539, 450.000000, 8146.000000, 8339.000000, 0.000000, 0.000000, 0.000000, 2.000000, 261.300018, 1557645229.990574, 4.000000, 4.000000, 4.000000, 4.000000, 4.000000
79.000000, 0.000000, 3833.845947, 4271.794922, 4206.153809, 3870.256348, 4057.948730, 16165.000000, 8149.000000, 8339.000000, 0.000000, 0.000000, 0.000000, 2.000000, 269.199982, 1557645229.998474, 4.000000, 4.000000, 4.000000, 4.000000, 4.000000
80.000000, 0.000000, 3842.563965, 4272.820313, 4216.410156, 3900.512695, 4077.948730, 450.000000, 8146.000000, 8335.000000, 0.000000, 0.000000, 0.000000, 2.000000, 277.199982, 1557645230.006474, 4.000000, 4.000000, 4.000000, 4.000000, 4.000000
81.000000, 0.000000, 3847.692139, 4257.436035, 4201.538574, 3913.333252, 4074.871582, 450.000000, 8143.000000, 8336.000000, 0.000000, 0.000000, 0.000000, 2.000000, 285.100006, 1557645230.014374, 4.000000, 4.000000, 4.000000, 4.000000, 4.000000
82.000000, 0.000000, 3867.692139, 4264.102539, 4175.384277, 3876.410156, 4058.974365, 450.000000, 8145.000000, 8343.000000, 0.000000, 0.000000, 0.000000, 2.000000, 293.000031, 1557645230.022274, 4.000000, 4.000000, 4.000000, 4.000000, 4.000000
83.000000, 0.000000, 3878.974365, 4259.487305, 4166.666504, 3864.615234, 4067.692139, 16165.000000, 8144.000000, 8343.000000, 0.000000, 0.000000, 0.000000, 2.000000, 300.800018, 1557645230.030074, 4.000000, 4.000000, 4.000000, 4.000000, 4.000000
84.000000, 0.000000, 3872.307617, 4240.512695, 4166.666504, 3910.769043, 4085.640869, 450.000000, 8142.000000, 8335.000000, 0.000000, 0.000000, 0.000000, 2.000000, 308.600006, 1557645230.037874, 4.000000, 4.000000, 4.000000, 4.000000, 4.000000
85.000000, 0.000000, 3868.205078, 4245.641113, 4168.205078, 3900.000000, 4078.461426, 450.000000, 8139.000000, 8344.000000, 0.000000, 0.000000, 0.000000, 2.000000, 316.300018, 1557645230.045574, 4.000000, 4.000000, 4.000000, 4.000000, 4.000000
86.000000, 0.000000, 3876.410156, 4272.820313, 4187.179199, 3857.435791, 4086.666504, 450.000000, 8142.000000, 8345.000000, 0.000000, 0.000000, 0.000000, 2.000000, 324.100006, 1557645230.053374, 4.000000, 4.000000, 4.000000, 4.000000, 4.000000
87.000000, 0.000000, 3891.794678, 4284.102539, 4204.102539, 3902.563965, 4115.897461, 16165.000000, 8145.000000, 8332.000000, 0.000000, 0.000000, 0.000000, 2.000000, 332.100006, 1557645230.061374, 4.000000, 4.000000, 4.000000, 4.000000, 4.000000
88.000000, 0.000000, 3898.974365, 4260.000000, 4202.563965, 3958.461426, 4109.743652, 450.000000, 8140.000000, 8346.000000, 0.000000, 0.000000, 0.000000, 2.000000, 340.100006, 1557645230.069374, 4.000000, 4.000000, 4.000000, 4.000000, 4.000000
89.000000, 0.000000, 3900.000000, 4251.281738, 4212.820313, 3937.435791, 4091.281982, 450.000000, 8133.000000, 8340.000000, 0.000000, 0.000000, 0.000000, 2.000000, 348.000031, 1557645230.077274, 4.000000, 4.000000, 4.000000, 4.000000, 4.000000
90.000000, 0.000000, 3911.794678, 4280.000000, 4229.230469, 3908.205078, 4110.769043, 450.000000, 8132.000000, 8334.000000, 0.000000, 0.000000, 0.000000, 2.000000, 356.000031, 1557645230.085274, 4.000000, 4.000000, 4.000000, 4.000000, 4.000000
91.000000, 0.000000, 3917.435791, 4271.794922, 4204.615234, 3925.640869, 4110.769043, 16165.000000, 8136.000000, 8348.000000, 0.000000, 0.000000, 0.000000, 2.000000, 364.000031, 1557645230.093274, 4.000000, 4.000000, 4.000000, 4.000000, 4.000000
92.000000, 0.000000, 3902.051270, 4233.846191, 4165.641113, 3933.845947, 4078.974365, 450.000000, 8135.000000, 8349.000000, 0.000000, 0.000000, 0.000000, 2.000000, 372.000031, 1557645230.101274, 4.000000, 4.000000, 4.000000, 4.000000, 4.000000
93.000000, 0.000000, 3912.820313, 4250.256348, 4163.076660, 3931.794678, 4097.948730, 450.000000, 8134.000000, 8352.000000, 0.000000, 0.000000, 0.000000, 2.000000, 379.699982, 1557645230.108974, 4.000000, 4.000000, 4.000000, 4.000000, 4.000000
94.000000, 0.000000, 3934.871582, 4269.230469, 4171.281738, 3931.794678, 4129.743652, 450.000000, 8134.000000, 8361.000000, 0.000000, 0.000000, 0.000000, 2.000000, 387.500031, 1557645230.116774, 4.000000, 4.000000, 4.000000, 4.000000, 4.000000
95.000000, 0.000000, 3914.871582, 4232.820313, 4157.948730, 3928.717773, 4107.692383, 16165.000000, 8135.000000, 8368.000000, 0.000000, 0.000000, 0.000000, 2.000000, 395.300018, 1557645230.124574, 4.000000, 4.000000, 4.000000, 4.000000, 4.000000
96.000000, 0.000000, 3907.179443, 4218.461426, 4148.717773, 3948.205078, 4096.410156, 450.000000, 8142.000000, 8370.000000, 0.000000, 0.000000, 0.000000, 2.000000, 403.000031, 1557645230.132274, 4.000000, 4.000000, 4.000000, 4.000000, 4.000000
97.000000, 0.000000, 3936.410156, 4235.384277, 4149.743652, 3948.205078, 4115.897461, 450.000000, 8141.000000, 8366.000000, 0.000000, 0.000000, 0.000000, 2.000000, 411.000031, 1557645230.140274, 4.000000, 4.000000, 4.000000, 4.000000, 4.000000
98.000000, 0.000000, 3949.743408, 4245.641113, 4152.820313, 3912.820313, 4109.230469, 450.000000, 8142.000000, 8376.000000, 0.000000, 0.000000, 0.000000, 2.000000, 419.000031, 1557645230.148274, 4.000000, 4.000000, 4.000000, 4.000000, 4.000000
99.000000, 0.000000, 3947.179443, 4254.358887, 4163.076660, 3918.974365, 4087.692139, 16165.000000, 8139.000000, 8383.000000, 0.000000, 0.000000, 0.000000, 2.000000, 427.000031, 1557645230.156274, 4.000000, 4.000000, 4.000000, 4.000000, 4.000000
100.000000, 0.000000, 3956.923096, 4243.589844, 4165.127930, 3970.769043, 4091.281982, 450.000000, 8140.000000, 8372.000000, 0.000000, 0.000000, 0.000000, 2.000000, 434.699982, 1557645230.163974, 4.000000, 4.000000, 4.000000, 4.000000, 4.000000
101.000000, 0.000000, 3960.512695, 4218.461426, 4158.461426, 3981.538330, 4101.025391, 450.000000, 8138.000000, 8376.000000, 0.000000, 0.000000, 0.000000, 2.000000, 442.500031, 1557645230.171774, 4.000000, 4.000000, 4.000000, 4.000000, 4.000000
102.000000, 0.000000, 3954.871582, 4216.410156, 4154.871582, 3951.281982, 4101.025391, 450.000000, 8142.000000, 8383.000000, 0.000000, 0.000000, 0.000000, 2.000000, 450.300018, 1557645230.179574, 4.000000, 4.000000, 4.000000, 4.000000, 4.000000
103.000000, 0.000000, 3967.692139, 4232.820313, 4145.641113, 3952.307617, 4106.153809, 16165.000000, 8142.000000, 8374.000000, 0.000000, 0.000000, 0.000000, 2.000000, 458.199982, 1557645230.187474, 4.000000, 4.000000, 4.000000, 4.000000, 4.000000
104.000000, 0.000000, 3994.358887, 4236.922852, 4131.281738, 3963.076904, 4106.153809, 450.000000, 8150.000000, 8369.000000, 0.000000, 0.000000, 0.000000, 2.000000, 466.100006, 1557645230.195374, 4.000000, 4.000000, 4.000000, 4.000000, 4.000000
105.000000, 0.000000, 4017.948730, 4246.666504, 4160.000000, 3955.897461, 4110.769043, 450.000000, 8146.000000, 8372.000000, 0.000000, 0.000000, 0.000000, 2.000000, 474.100006, 1557645230.203374, 4.000000, 4.000000, 4.000000, 4.000000, 4.000000
106.000000, 0.000000, 4018.461426, 4254.358887, 4198.461426, 3966.666504, 4126.153809, 450.000000, 8142.000000, 8375.000000, 0.000000, 0.000000, 0.000000, 2.000000, 482.100006, 1557645230.211374, 4.000000, 4.000000, 4.000000, 4.000000, 4.000000
107.000000, 0.000000, 3984.102539, 4233.333008, 4166.153809, 3981.538330, 4102.563965, 16165.000000, 8132.000000, 8373.000000, 0.000000, 0.000000, 0.000000, 2.000000, 490.100006, 1557645230.219374, 4.000000, 4.000000, 4.000000, 4.000000, 4.000000
108.000000, 0.000000, 3981.025635, 4221.025391, 4128.205078, 3983.076904, 4080.512695, 450.000000, 8127.000000, 8366.000000, 0.000000, 0.000000, 0.000000, 2.000000, 498.000031, 1557645230.227274, 4.000000, 4.000000, 4.000000, 4.000000, 4.000000
109.000000, 0.000000, 4035.384521, 4237.948730, 4158.974121, 3999.487061, 4130.769043, 450.000000, 8132.000000, 8362.000000, 0.000000, 0.000000, 0.000000, 2.000000, 505.800018, 1557645230.235074, 4.000000, 4.000000, 4.000000, 4.000000, 4.000000
110.000000, 0.000000, 4072.307617, 4251.794922, 4189.743652, 4013.845947, 4178.974121, 450.000000, 8132.000000, 8369.000000, 0.000000, 0.000000, 0.000000, 2.000000, 513.600006, 1557645230.242874, 4.000000, 4.000000, 4.000000, 4.000000, 4.000000
111.000000, 0.000000, 4069.743408, 4257.436035, 4189.743652, 4006.666504, 4170.256348, 16165.000000, 8133.000000, 8376.000000, 0.000000, 0.000000, 0.000000, 2.000000, 521.300018, 1557645230.250574, 4.000000, 4.000000, 4.000000, 4.000000, 4.000000
112.000000, 0.000000, 4073.845947, 4256.922852, 4204.102539, 4007.692139, 4157.436035, 450.000000, 8127.000000, 8381.000000, 0.000000, 0.000000, 0.000000, 2.000000, 529.100006, 1557645230.258374, 4.000000, 4.000000, 4.000000, 4.000000, 4.000000
113.000000, 0.000000, 4093.333252, 4255.384277, 4213.333008, 4027.692139, 4174.871582, 450.000000, 8134.000000, 8372.000000, 0.000000, 0.000000, 0.000000, 2.000000, 537.100006, 1557645230.266374, 4.000000, 4.000000, 4.000000, 4.000000, 4.000000
114.000000, 0.000000, 4118.461426, 4270.256348, 4205.641113, 4036.410156, 4201.025391, 450.000000, 8137.000000, 8368.000000, 0.000000, 0.000000, 0.000000, 2.000000, 545.100006, 1557645230.274374, 4.000000, 4.000000, 4.000000, 4.000000, 4.000000
115.000000, 0.000000, 4124.615234, 4264.615234, 4206.666504, 4042.051270, 4191.794922, 16165.000000, 8138.000000, 8381.000000, 0.000000, 0.000000, 0.000000, 2.000000, 553.000031, 1557645230.282274, 4.000000, 4.000000, 4.000000, 4.000000, 4.000000
116.000000, 0.000000, 4101.025391, 4231.281738, 4209.230469, 4064.102539, 4151.281738, 450.000000, 8141.000000, 8389.000000, 0.000000, 0.000000, 0.000000, 2.000000, 561.000031, 1557645230.290274, 4.000000, 4.000000, 4.000000, 4.000000, 4.000000
117.000000, 0.000000, 4108.205078, 4240.000000, 4204.102539, 4063.076904, 4156.922852, 450.000000, 8127.000000, 8377.000000, 0.000000, 0.000000, 0.000000, 2.000000, 568.800018, 1557645230.298074, 4.000000, 4.000000, 4.000000, 4.000000, 4.000000
118.000000, 0.000000, 4149.743652, 4266.666504, 4193.846191, 4032.820313, 4196.922852, 450.000000, 8125.000000, 8377.000000, 0.000000, 0.000000, 0.000000, 2.000000, 576.600006, 1557645230.305874, 4.000000, 4.000000, 4.000000, 4.000000, 4.000000
119.000000, 0.000000, 4143.076660, 4248.717773, 4191.794922, 4028.205078, 4187.179199, 16165.000000, 8132.000000, 8381.000000, 0.000000, 0.000000, 0.000000, 2.000000, 584.300018, 1557645230.313574, 4.000000, 4.000000, 4.000000, 4.000000, 4.000000
120.000000, 0.000000, 4116.410156, 4230.769043, 4211.794922, 4060.512695, 4163.076660, 450.000000, 8133.000000, 8387.000000, 0.000000, 0.000000, 0.000000, 2.000000, 592.100006, 1557645230.321374, 4.000000, 4.000000, 4.000000, 4.000000, 4.000000
121.000000, 0.000000, 4127.179199, 4241.538574, 4220.000000, 4065.128174, 4164.102539, 450.000000, 8133.000000, 8378.000000, 0.000000, 0.000000, 0.000000, 2.000000, 600.100006, 1557645230.329374, 4.000000, 4.000000, 4.000000, 4.000000, 4.000000
122.000000, 0.000000, 4150.256348, 4260.512695, 4202.051270, 4041.025635, 4169.743652, 450.000000, 8128.000000, 8377.000000, 0.000000, 0.000000, 0.000000, 2.000000, 608.000031, 1557645230.337274, 4.000000, 4.000000, 4.000000, 4.000000, 4.000000
123.000000, 0.000000, 4148.717773, 4265.641113, 4198.461426, 4050.256348, 4180.000000, 16165.000000, 8139.000000, 8370.000000, 0.000000, 0.000000, 0.000000, 2.000000, 616.000031, 1557645230.345274, 4.000000, 4.000000, 4.000000, 4.000000, 4.000000
124.000000, 0.000000, 4144.102539, 4247.692383, 4204.615234, 4080.512695, 4187.179199, 450.000000, 8135.000000, 8384.000000, 0.000000, 0.000000, 0.000000, 2.000000, 624.000031, 1557645230.353274, 4.000000, 4.000000, 4.000000, 4.000000, 4.000000
125.000000, 0.000000, 4154.871582, 4238.974121, 4186.153809, 4075.384521, 4174.358887, 450.000000, 8131.000000, 8372.000000, 0.000000, 0.000000, 0.000000, 2.000000, 632.000031, 1557645230.361274, 4.000000, 4.000000, 4.000000, 4.000000, 4.000000
126.000000, 0.000000, 4146.153809, 4244.102539, 4174.358887, 4055.384521, 4157.436035, 450.000000, 8140.000000, 8362.000000, 0.000000, 0.000000, 0.000000, 2.000000, 639.699982, 1557645230.368974, 4.000000, 4.000000, 4.000000, 4.000000, 4.000000
127.000000, 0.000000, 4134.358887, 4252.307617, 4192.307617, 4068.717773, 4168.717773, 16165.000000, 8134.000000, 8357.000000, 0.000000, 0.000000, 0.000000, 2.000000, 647.500031, 1557645230.376774, 4.000000, 4.000000, 4.000000, 4.000000, 4.000000
128.000000, 0.000000, 4160.000000, 4261.538574, 4214.358887, 4099.487305, 4186.153809, 500.000000, 8129.000000, 8373.000000, 0.000000, 0.000000, 0.000000, 2.000000, 655.300018, 1557645230.384574, 4.000000, 4.000000, 4.000000, 4.000000, 4.000000
0.000000, 0.000000, 4181.538574, 4253.846191, 4226.153809, 4102.563965, 4174.358887, 500.000000, 8137.000000, 8374.000000, 0.000000, 0.000000, 0.000000, 2.000000, 663.199982, 1557645230.392474, 4.000000, 4.000000, 4.000000, 4.000000, 4.000000
1.000000, 0.000000, 4171.794922, 4247.692383, 4247.692383, 4084.615234, 4163.076660, 500.000000, 8138.000000, 8367.000000, 0.000000, 0.000000, 0.000000, 2.000000, 671.100006, 1557645230.400374, 4.000000, 4.000000, 4.000000, 4.000000, 4.000000
2.000000, 0.000000, 4183.589844, 4274.358887, 4274.871582, 4092.820313, 4175.384277, 16201.000000, 8135.000000, 8372.000000, 0.000000, 0.000000, 0.000000, 2.000000, 679.100006, 1557645230.408374, 4.000000, 4.000000, 4.000000, 4.000000, 4.000000
3.000000, 0.000000, 4215.897461, 4283.076660, 4267.692383, 4123.589844, 4180.000000, 500.000000, 8138.000000, 8376.000000, 0.000000, 0.000000, 0.000000, 2.000000, 687.100006, 1557645230.416374, 4.000000, 4.000000, 4.000000, 4.000000, 4.000000
4.000000, 0.000000, 4228.717773, 4265.127930, 4257.436035, 4112.307617, 4184.102539, 16097.000000, 8135.000000, 8370.000000, 0.000000, 0.000000, 0.000000, 2.000000, 695.100006, 1557645230.424374, 4.000000, 4.000000, 4.000000, 4.000000, 4.000000
5.000000, 0.000000, 4238.974121, 4267.179199, 4282.051270, 4090.256348, 4210.256348, 500.000000, 8138.000000, 8375.000000, 0.000000, 0.000000, 0.000000, 2.000000, 702.800006, 1557645230.432074, 4.000000, 4.000000, 4.000000, 4.000000, 4.000000
6.000000, 0.000000, 4244.102539, 4252.307617, 4276.922852, 4128.205078, 4211.281738, 16062.000000, 8139.000000, 8370.000000, 0.000000, 0.000000, 0.000000, 2.000000, 710.600006, 1557645230.439874, 4.000000, 4.000000, 4.000000, 4.000000, 4.000000
7.000000, 0.000000, 4240.512695, 4230.256348, 4232.307617, 4166.153809, 4183.076660, 500.000000, 8138.000000, 8364.000000, 0.000000, 0.000000, 0.000000, 2.000000, 718.400005, 1557645230.447674, 4.000000, 4.000000, 4.000000, 4.000000, 4.000000
8.000000, 0.000000, 4248.717773, 4251.794922, 4225.127930, 4148.205078, 4177.436035, 500.000000, 8137.000000, 8371.000000, 0.000000, 0.000000, 0.000000, 2.000000, 726.100006, 1557645230.455374, 4.000000, 4.000000, 4.000000, 4.000000, 4.000000
9.000000, 0.000000, 4252.307617, 4259.487305, 4257.948730, 4136.922852, 4188.205078, 295.000000, 8136.000000, 8370.000000, 0.000000, 0.000000, 0.000000, 2.000000, 734.100006, 1557645230.463374, 4.000000, 4.000000, 4.000000, 4.000000, 4.000000
10.000000, 0.000000, 4244.102539, 4235.897461, 4268.205078, 4153.333008, 4190.256348, 500.000000, 8140.000000, 8359.000000, 0.000000, 0.000000, 0.000000, 2.000000, 742.100006, 1557645230.471374, 4.000000, 4.000000, 4.000000, 4.000000, 4.000000
11.000000, 0.000000, 4258.461426, 4251.281738, 4255.897461, 4166.666504, 4198.461426, 16163.000000, 8134.000000, 8363.000000, 0.000000, 0.000000, 0.000000, 2.000000, 750.100006, 1557645230.479374, 4.000000, 4.000000, 4.000000, 4.000000, 4.000000
12.000000, 0.000000, 4273.333008, 4268.717773, 4248.205078, 4174.871582, 4201.025391, 500.000000, 8131.000000, 8375.000000, 0.000000, 0.000000, 0.000000, 2.000000, 758.000008, 1557645230.487274, 4.000000, 4.000000, 4.000000, 4.000000, 4.000000
13.000000, 0.000000, 4254.871582, 4229.230469, 4244.102539, 4167.179199, 4188.717773, 500.000000, 8131.000000, 8375.000000, 0.000000, 0.000000, 0.000000, 2.000000, 766.000008, 1557645230.495274, 4.000000, 4.000000, 4.000000, 4.000000, 4.000000
14.000000, 0.000000, 4265.127930, 4224.102539, 4258.461426, 4153.846191, 4201.538574, 450.000000, 8131.000000, 8360.000000, 0.000000, 0.000000, 0.000000, 2.000000, 773.800003, 1557645230.503074, 4.000000, 4.000000, 4.000000, 4.000000, 4.000000
15.000000, 0.000000, 4310.256348, 4278.974121, 4283.589844, 4181.025391, 4219.487305, 16163.000000, 8132.000000, 8362.000000, 0.000000, 0.000000, 0.000000, 2.000000, 781.600006, 1557645230.510874, 4.000000, 4.000000, 4.000000, 4.000000, 4.000000
16.000000, 0.000000, 4316.410156, 4276.410156, 4273.333008, 4190.769043, 4205.641113, 0.000000, 8130.000000, 8372.000000, 0.000000, 0.000000, 0.000000, 2.000000, 789.300003, 1557645230.518574, 4.000000, 4.000000, 4.000000, 4.000000, 4.000000
17.000000, 0.000000, 4303.589844, 4225.641113, 4238.974121, 4174.358887, 4197.948730, 0.000000, 8139.000000, 8369.000000, 0.000000, 0.000000, 0.000000, 2.000000, 797.200005, 1557645230.526474, 4.000000, 4.000000, 4.000000, 4.000000, 4.000000
18.000000, 0.000000, 4320.512695, 4232.307617, 4248.717773, 4198.461426, 4218.974121, 0.000000, 8138.000000, 8358.000000, 0.000000, 0.000000, 0.000000, 2.000000, 805.100006, 1557645230.534374, 4.000000, 4.000000, 4.000000, 4.000000, 4.000000
19.000000, 0.000000, 4333.333008, 4268.717773, 4293.333008, 4225.127930, 4233.846191, 0.000000, 8134.000000, 8357.000000, 0.000000, 0.000000, 0.000000, 2.000000, 813.000008, 1557645230.542274, 4.000000, 4.000000, 4.000000, 4.000000, 4.000000
20.000000, 0.000000, 4331.281738, 4261.025391, 4300.000000, 4223.076660, 4229.743652, 0.000000, 8137.000000, 8359.000000, 0.000000, 0.000000, 0.000000, 2.000000, 821.000000, 1557645230.550274, 4.000000, 4.000000, 4.000000, 4.000000, 4.000000
21.000000, 0.000000, 4331.281738, 4229.230469, 4275.384277, 4214.871582, 4222.563965, 0.000000, 8136.000000, 8364.000000, 0.000000, 0.000000, 0.000000, 2.000000, 829.000000, 1557645230.558274, 4.000000, 4.000000, 4.000000, 4.000000, 4.000000
22.000000, 0.000000, 4327.179199, 4224.102539, 4260.000000, 4203.076660, 4213.333008, 0.000000, 8135.000000, 8365.000000, 0.000000, 0.000000, 0.000000, 2.000000, 836.800003, 1557645230.566074, 4.000000, 4.000000, 4.000000, 4.000000, 4.000000
23.000000, 0.000000, 4335.897461, 4242.051270, 4257.436035, 4205.641113, 4211.794922, 0.000000, 8142.000000, 8357.000000, 0.000000, 0.000000, 0.000000, 2.000000, 844.500000, 1557645230.573774, 4.000000, 4.000000, 4.000000, 4.000000, 4.000000
24.000000, 0.000000, 4354.358887, 4249.743652, 4268.717773, 4215.897461, 4223.589844, 0.000000, 8143.000000, 8353.000000, 0.000000, 0.000000, 0.000000, 2.000000, 852.300003, 1557645230.581574, 4.000000, 4.000000, 4.000000, 4.000000, 4.000000
25.000000, 0.000000, 4356.922852, 4241.025391, 4279.487305, 4200.512695, 4233.333008, 0.000000, 8145.000000, 8359.000000, 0.000000, 0.000000, 0.000000, 2.000000, 860.200012, 1557645230.589474, 4.000000, 4.000000, 4.000000, 4.000000, 4.000000
26.000000, 0.000000, 4360.512695, 4241.538574, 4277.948730, 4202.563965, 4229.230469, 0.000000, 8139.000000, 8357.000000, 0.000000, 0.000000, 0.000000, 2.000000, 868.200012, 1557645230.597474, 4.000000, 4.000000, 4.000000, 4.000000, 4.000000
27.000000, 0.000000, 4380.512695, 4252.820313, 4288.205078, 4246.153809, 4229.230469, 0.000000, 8139.000000, 8344.000000, 0.000000, 0.000000, 0.000000, 2.000000, 876.100006, 1557645230.605374, 4.000000, 4.000000, 4.000000, 4.000000, 4.000000
28.000000, 0.000000, 4386.153809, 4245.127930, 4308.205078, 4255.897461, 4235.897461, 0.000000, 8136.000000, 8348.000000, 0.000000, 0.000000, 0.000000, 2.000000, 884.100006, 1557645230.613374, 4.000000, 4.000000, 4.000000, 4.000000, 4.000000
29.000000, 0.000000, 4376.922852, 4242.051270, 4312.307617, 4228.717773, 4230.769043, 0.000000, 8133.000000, 8356.000000, 0.000000, 0.000000, 0.000000, 2.000000, 892.100006, 1557645230.621374, 4.000000, 4.000000, 4.000000, 4.000000, 4.000000
30.000000, 0.000000, 4382.051270, 4244.615234, 4316.410156, 4227.179199, 4234.358887, 0.000000, 8132.000000, 8353.000000, 0.000000, 0.000000, 0.000000, 2.000000, 899.900009, 1557645230.629174, 4.000000, 4.000000, 4.000000, 4.000000, 4.000000
31.000000, 0.000000, 4393.846191, 4232.307617, 4327.179199, 4251.281738, 4261.025391, 0.000000, 8134.000000, 8346.000000, 0.000000, 0.000000, 0.000000, 2.000000, 907.600006, 1557645230.636874, 4.000000, 4.000000, 4.000000, 4.000000, 4.000000
32.000000, 0.000000, 4402.051270, 4245.641113, 4319.487305, 4265.127930, 4268.205078, 0.000000, 8130.000000, 8345.000000, 0.000000, 0.000000, 0.000000, 2.000000, 915.400009, 1557645230.644674, 4.000000, 4.000000, 4.000000, 4.000000, 4.000000
33.000000, 0.000000, 4413.846191, 4273.846191, 4307.692383, 4266.153809, 4254.871582, 0.000000, 8136.000000, 8352.000000, 0.000000, 0.000000, 0.000000, 2.000000, 923.300003, 1557645230.652574, 4.000000, 4.000000, 4.000000, 4.000000, 4.000000
34.000000, 0.000000, 4413.846191, 4248.717773, 4315.384277, 4273.846191, 4257.948730, 0.000000, 8134.000000, 8355.000000, 0.000000, 0.000000, 0.000000, 2.000000, 931.200012, 1557645230.660474, 4.000000, 4.000000, 4.000000, 4.000000, 4.000000
35.000000, 0.000000, 4415.897461, 4221.025391, 4331.281738, 4276.922852, 4273.846191, 0.000000, 8137.000000, 8350.000000, 0.000000, 0.000000, 0.000000, 2.000000, 939.200012, 1557645230.668474, 4.000000, 4.000000, 4.000000, 4.000000, 4.000000
36.000000, 0.000000, 4442.563965, 4272.307617, 4340.512695, 4283.589844, 4284.615234, 0.000000, 8140.000000, 8342.000000, 0.000000, 0.000000, 0.000000, 2.000000, 947.200012, 1557645230.676474, 4.000000, 4.000000, 4.000000, 4.000000, 4.000000
37.000000, 0.000000, 4451.794922, 4301.025391, 4333.333008, 4309.743652, 4280.512695, 0.000000, 8139.000000, 8338.000000, 0.000000, 0.000000, 0.000000, 2.000000, 955.200012, 1557645230.684474, 4.000000, 4.000000, 4.000000, 4.000000, 4.000000
38.000000, 0.000000, 4421.538574, 4236.410156, 4322.563965, 4308.205078, 4265.641113, 0.000000, 8143.000000, 8354.000000, 0.000000, 0.000000, 0.000000, 2.000000, 963.100006, 1557645230.692374, 4.000000, 4.000000, 4.000000, 4.000000, 4.000000
39.000000, 0.000000, 4414.358887, 4203.589844, 4328.205078, 4278.461426, 4262.051270, 0.000000, 8145.000000, 8354.000000, 0.000000, 0.000000, 0.000000, 2.000000, 971.100006, 1557645230.700374, 4.000000, 4.000000, 4.000000, 4.000000, 4.000000
40.000000, 0.000000, 4435.897461, 4241.538574, 4336.410156, 4284.102539, 4269.230469, 0.000000, 8147.000000, 8345.000000, 0.000000, 0.000000, 0.000000, 2.000000, 978.899994, 1557645230.708174, 4.000000, 4.000000, 4.000000, 4.000000, 4.000000
41.000000, 0.000000, 4441.538574, 4263.076660, 4350.256348, 4303.589844, 4273.333008, 0.000000, 8144.000000, 8342.000000, 0.000000, 0.000000, 0.000000, 2.000000, 986.700012, 1557645230.715974, 4.000000, 4.000000, 4.000000, 4.000000, 4.000000
42.000000, 0.000000, 4451.794922, 4266.153809, 4384.102539, 4298.974121, 4286.666504, 0.000000, 8145.000000, 8357.000000, 0.000000, 0.000000, 0.000000, 2.000000, 994.399994, 1557645230.723674, 4.000000, 4.000000, 4.000000, 4.000000, 4.000000
43.000000, 0.000000, 4459.487305, 4265.641113, 4394.358887, 4302.051270, 4293.333008, 0.000000, 8138.000000, 8363.000000, 0.000000, 0.000000, 0.000000, 3.000000, 2.200012, 1557645230.731474, 4.000000, 4.000000, 4.000000, 4.000000, 4.000000
44.000000, 0.000000, 4452.820313, 4246.666504, 4364.102539, 4308.717773, 4280.512695, 0.000000, 8138.000000, 8366.000000, 0.000000, 0.000000, 0.000000, 3.000000, 10.200012, 1557645230.739474, 4.000000, 4.000000, 4.000000, 4.000000, 4.000000
45.000000, 0.000000, 4465.641113, 4240.512695, 4337.436035, 4314.358887, 4287.179199, 0.000000, 8136.000000, 8372.000000, 0.000000, 0.000000, 0.000000, 3.000000, 18.100006, 1557645230.747374, 4.000000, 4.000000, 4.000000, 4.000000, 4.000000
46.000000, 0.000000, 4477.435547, 4242.051270, 4331.281738, 4323.589844, 4298.974121, 0.000000, 8136.000000, 8376.000000, 0.000000, 0.000000, 0.000000, 3.000000, 26.100006, 1557645230.755374, 4.000000, 4.000000, 4.000000, 4.000000, 4.000000
47.000000, 0.000000, 4471.794922, 4233.846191, 4333.333008, 4303.589844, 4289.230469, 0.000000, 8141.000000, 8367.000000, 0.000000, 0.000000, 0.000000, 3.000000, 33.899994, 1557645230.763174, 4.000000, 4.000000, 4.000000, 4.000000, 4.000000
48.000000, 0.000000, 4481.538574, 4242.051270, 4338.974121, 4287.179199, 4291.281738, 0.000000, 8137.000000, 8377.000000, 0.000000, 0.000000, 0.000000, 3.000000, 41.700012, 1557645230.770974, 4.000000, 4.000000, 4.000000, 4.000000, 4.000000
49.000000, 0.000000, 4498.461426, 4244.102539, 4331.794922, 4304.102539, 4310.256348, 0.000000, 8134.000000, 8370.000000, 0.000000, 0.000000, 0.000000, 3.000000, 49.399994, 1557645230.778674, 4.000000, 4.000000, 4.000000, 4.000000, 4.000000
50.000000, 0.000000, 4490.256348, 4211.794922, 4322.563965, 4308.205078, 4316.410156, 0.000000, 8141.000000, 8366.000000, 0.000000, 0.000000, 0.000000, 3.000000, 57.200012, 1557645230.786474, 4.000000, 4.000000, 4.000000, 4.000000, 4.000000
51.000000, 0.000000, 4483.589844, 4207.692383, 4338.461426, 4296.922852, 4315.384277, 0.000000, 8141.000000, 8375.000000, 0.000000, 0.000000, 0.000000, 3.000000, 65.200012, 1557645230.794474, 4.000000, 4.000000, 4.000000, 4.000000, 4.000000
52.000000, 0.000000, 4498.461426, 4238.974121, 4356.922852, 4305.641113, 4317.948730, 0.000000, 8135.000000, 8371.000000, 0.000000, 0.000000, 0.000000, 3.000000, 73.200012, 1557645230.802474, 4.000000, 4.000000, 4.000000, 4.000000, 4.000000
53.000000, 0.000000, 4507.692383, 4240.000000, 4369.230469, 4321.538574, 4325.641113, 0.000000, 8135.000000, 8364.000000, 0.000000, 0.000000, 0.000000, 3.000000, 81.100006, 1557645230.810374, 4.000000, 4.000000, 4.000000, 4.000000, 4.000000
54.000000, 0.000000, 4508.717773, 4214.871582, 4377.948730, 4320.512695, 4353.333008, 0.000000, 8131.000000, 8351.000000, 0.000000, 0.000000, 0.000000, 3.000000, 89.100006, 1557645230.818374, 4.000000, 4.000000, 4.000000, 4.000000, 4.000000
55.000000, 0.000000, 4512.820313, 4195.384277, 4363.589844, 4329.743652, 4378.974121, 0.000000, 8131.000000, 8365.000000, 0.000000, 0.000000, 0.000000, 3.000000, 96.899994, 1557645230.826174, 4.000000, 4.000000, 4.000000, 4.000000, 4.000000
56.000000, 0.000000, 4540.000000, 4199.487305, 4346.666504, 4358.974121, 4388.205078, 0.000000, 8136.000000, 8363.000000, 0.000000, 0.000000, 0.000000, 3.000000, 104.700012, 1557645230.833974, 4.000000, 4.000000, 4.000000, 4.000000, 4.000000
57.000000, 0.000000, 4557.435547, 4215.897461, 4358.461426, 4362.563965, 4400.512695, 0.000000, 8134.000000, 8354.000000, 0.000000, 0.000000, 0.000000, 3.000000, 112.600006, 1557645230.841874, 4.000000, 4.000000, 4.000000, 4.000000, 4.000000
58.000000, 0.000000, 4532.820313, 4206.666504, 4369.743652, 4329.230469, 4415.384277, 0.000000, 8129.000000, 8355.000000, 0.000000, 0.000000, 0.000000, 3.000000, 120.399994, 1557645230.849674, 4.000000, 4.000000, 4.000000, 4.000000, 4.000000
59.000000, 0.000000, 4518.974121, 4189.230469, 4367.692383, 4313.333008, 4421.538574, 0.000000, 8130.000000, 8363.000000, 0.000000, 0.000000, 0.000000, 3.000000, 128.200012, 1557645230.857474, 4.000000, 4.000000, 4.000000, 4.000000, 4.000000
60.000000, 0.000000, 4548.717773, 4211.281738, 4380.512695, 4343.589844, 4431.281738, 0.000000, 8126.000000, 8359.000000, 0.000000, 0.000000, 0.000000, 3.000000, 136.100006, 1557645230.865374, 4.000000, 4.000000, 4.000000, 4.000000, 4.000000
61.000000, 0.000000, 4581.025391, 4234.358887, 4397.948730, 4380.000000, 4455.384277, 0.000000, 8121.000000, 8365.000000, 0.000000, 0.000000, 0.000000, 3.000000, 144.100006, 1557645230.873374, 4.000000, 4.000000, 4.000000, 4.000000, 4.000000
62.000000, 0.000000, 4590.769043, 4221.538574, 4397.948730, 4394.358887, 4470.256348, 0.000000, 8124.000000, 8372.000000, 0.000000, 0.000000, 0.000000, 3.000000, 152.100006, 1557645230.881374, 4.000000, 4.000000, 4.000000, 4.000000, 4.000000
63.000000, 0.000000, 4585.127930, 4204.615234, 4390.256348, 4388.205078, 4455.384277, 0.000000, 8123.000000, 8360.000000, 0.000000, 0.000000, 0.000000, 3.000000, 160.100006, 1557645230.889374, 4.000000, 4.000000, 4.000000, 4.000000, 4.000000
64.000000, 0.000000, 4578.461426, 4217.948730, 4400.000000, 4391.281738, 4448.717773, 500.000000, 8112.000000, 8366.000000, 0.000000, 0.000000, 0.000000, 3.000000, 167.800018, 1557645230.897074, 4.000000, 4.000000, 4.000000, 4.000000, 4.000000
65.000000, 0.000000, 4584.102539, 4235.897461, 4411.794922, 4400.512695, 4457.435547, 500.000000, 8125.000000, 8367.000000, 0.000000, 0.000000, 0.000000, 3.000000, 175.600006, 1557645230.904874, 4.000000, 4.000000, 4.000000, 4.000000, 4.000000
66.000000, 0.000000, 4584.615234, 4224.102539, 4415.384277, 4391.281738, 4450.256348, 16190.000000, 8134.000000, 8358.000000, 0.000000, 0.000000, 0.000000, 3.000000, 183.399994, 1557645230.912674, 4.000000, 4.000000, 4.000000, 4.000000, 4.000000
67.000000, 0.000000, 4576.922852, 4212.820313, 4438.974121, 4393.333008, 4443.589844, 500.000000, 8130.000000, 8354.000000, 0.000000, 0.000000, 0.000000, 3.000000, 191.200012, 1557645230.920474, 4.000000, 4.000000, 4.000000, 4.000000, 4.000000
68.000000, 0.000000, 4596.410156, 4237.948730, 4470.769043, 4407.179199, 4455.897461, 16082.000000, 8125.000000, 8369.000000, 0.000000, 0.000000, 0.000000, 3.000000, 199.000000, 1557645230.928274, 4.000000, 4.000000, 4.000000, 4.000000, 4.000000
69.000000, 0.000000, 4611.794922, 4257.948730, 4466.153809, 4401.025391, 4469.743652, 500.000000, 8115.000000, 8369.000000, 0.000000, 0.000000, 0.000000, 3.000000, 207.000031, 1557645230.936274, 4.000000, 4.000000, 4.000000, 4.000000, 4.000000
70.000000, 0.000000, 4600.000000, 4233.846191, 4446.666504, 4412.307617, 4483.589844, 16097.000000, 8116.000000, 8364.000000, 0.000000, 0.000000, 0.000000, 3.000000, 215.000031, 1557645230.944274, 4.000000, 4.000000, 4.000000, 4.000000, 4.000000
71.000000, 0.000000, 4600.000000, 4214.871582, 4452.307617, 4434.358887, 4490.769043, 500.000000, 8119.000000, 8361.000000, 0.000000, 0.000000, 0.000000, 3.000000, 222.899994, 1557645230.952174, 4.000000, 4.000000, 4.000000, 4.000000, 4.000000
72.000000, 0.000000, 4603.589844, 4226.153809, 4442.563965, 4407.179199, 4471.794922, 500.000000, 8121.000000, 8364.000000, 0.000000, 0.000000, 0.000000, 3.000000, 230.699982, 1557645230.959974, 4.000000, 4.000000, 4.000000, 4.000000, 4.000000
73.000000, 0.000000, 4603.076660, 4245.641113, 4416.922852, 4386.153809, 4463.076660, 319.000000, 8124.000000, 8357.000000, 0.000000, 0.000000, 0.000000, 3.000000, 238.500031, 1557645230.967774, 4.000000, 4.000000, 4.000000, 4.000000, 4.000000
74.000000, 0.000000, 4626.153809, 4251.281738, 4430.256348, 4417.948730, 4481.538574, 500.000000, 8127.000000, 8362.000000, 0.000000, 0.000000, 0.000000, 3.000000, 246.300018, 1557645230.975574, 4.000000, 4.000000, 4.000000, 4.000000, 4.000000
75.000000, 0.000000, 4631.794922, 4232.307617, 4452.307617, 4426.666504, 4476.922852, 16155.000000, 8132.000000, 8366.000000, 0.000000, 0.000000, 0.000000, 3.000000, 254.199982, 1557645230.983474, 4.000000, 4.000000, 4.000000, 4.000000, 4.000000
76.000000, 0.000000, 4591.794922, 4218.974121, 4431.794922, 4390.769043, 4452.820313, 500.000000, 8133.000000, 8356.000000, 0.000000, 0.000000, 0.000000, 3.000000, 262.199982, 1557645230.991474, 4.000000, 4.000000, 4.000000, 4.000000, 4.000000
77.000000, 0.000000, 4581.025391, 4229.230469, 4397.435547, 4381.538574, 4448.717773, 500.000000, 8135.000000, 8356.000000, 0.000000, 0.000000, 0.000000, 3.000000, 270.199982, 1557645230.999474, 4.000000, 4.000000, 4.000000, 4.000000, 4.000000
78.000000, 0.000000, 4615.897461, 4238.461426, 4394.358887, 4402.051270, 4466.666504, 450.000000, 8134.000000, 8368.000000, 0.000000, 0.000000, 0.000000, 3.000000, 278.199982, 1557645231.007474, 4.000000, 4.000000, 4.000000, 4.000000, 4.000000
79.000000, 0.000000, 4630.256348, 4225.641113, 4401.025391, 4401.538574, 4459.487305, 16155.000000, 8146.000000, 8356.000000, 0.000000, 0.000000, 0.000000, 3.000000, 286.100006, 1557645231.015374, 4.000000, 4.000000, 4.000000, 4.000000, 4.000000
80.000000, 0.000000, 4631.794922, 4231.281738, 4410.769043, 4398.974121, 4438.974121, 450.000000, 8145.000000, 8359.000000, 0.000000, 0.000000, 0.000000, 3.000000, 293.899994, 1557645231.023174, 4.000000, 4.000000, 4.000000, 4.000000, 4.000000
81.000000, 0.000000, 4657.948730, 4257.948730, 4437.435547, 4414.871582, 4463.076660, 450.000000, 8139.000000, 8369.000000, 0.000000, 0.000000, 0.000000, 3.000000, 301.699982, 1557645231.030974, 4.000000, 4.000000, 4.000000, 4.000000, 4.000000
82.000000, 0.000000, 4688.205078, 4256.410156, 4448.205078, 4418.974121, 4500.512695, 450.000000, 8145.000000, 8369.000000, 0.000000, 0.000000, 0.000000, 3.000000, 309.500031, 1557645231.038774, 4.000000, 4.000000, 4.000000, 4.000000, 4.000000
83.000000, 0.000000, 4688.205078, 4247.692383, 4431.281738, 4410.769043, 4491.794922, 16155.000000, 8147.000000, 8352.000000, 0.000000, 0.000000, 0.000000, 3.000000, 317.399994, 1557645231.046674, 4.000000, 4.000000, 4.000000, 4.000000, 4.000000
84.000000, 0.000000, 4673.333008, 4260.512695, 4423.076660, 4411.794922, 4470.769043, 450.000000, 8144.000000, 8357.000000, 0.000000, 0.000000, 0.000000, 3.000000, 325.199982, 1557645231.054474, 4.000000, 4.000000, 4.000000, 4.000000, 4.000000
85.000000, 0.000000, 4681.025391, 4258.461426, 4436.922852, 4412.820313, 4484.102539, 450.000000, 8140.000000, 8357.000000, 0.000000, 0.000000, 0.000000, 3.000000, 333.199982, 1557645231.062474, 4.000000, 4.000000, 4.000000, 4.000000, 4.000000
86.000000, 0.000000, 4703.076660, 4257.436035, 4457.948730, 4429.230469, 4510.256348, 450.000000, 8142.000000, 8356.000000, 0.000000, 0.000000, 0.000000, 3.000000, 341.100006, 1557645231.070374, 4.000000, 4.000000, 4.000000, 4.000000, 4.000000
87.000000, 0.000000, 4709.230469, 4265.641113, 4473.333008, 4455.897461, 4512.307617, 16155.000000, 8136.000000, 8355.000000, 0.000000, 0.000000, 0.000000, 3.000000, 349.100006, 1557645231.078374, 4.000000, 4.000000, 4.000000, 4.000000, 4.000000
88.000000, 0.000000, 4708.205078, 4251.281738, 4480.000000, 4431.794922, 4494.871582, 450.000000, 8138.000000, 8357.000000, 0.000000, 0.000000, 0.000000, 3.000000, 356.899994, 1557645231.086174, 4.000000, 4.000000, 4.000000, 4.000000, 4.000000
89.000000, 0.000000, 4704.102539, 4250.256348, 4472.820313, 4392.820313, 4488.717773, 450.000000, 8139.000000, 8354.000000, 0.000000, 0.000000, 0.000000, 3.000000, 364.699982, 1557645231.093974, 4.000000, 4.000000, 4.000000, 4.000000, 4.000000
90.000000, 0.000000, 4687.692383, 4262.563965, 4448.205078, 4403.589844, 4491.794922, 450.000000, 8136.000000, 8352.000000, 0.000000, 0.000000, 0.000000, 3.000000, 372.399994, 1557645231.101674, 4.000000, 4.000000, 4.000000, 4.000000, 4.000000
91.000000, 0.000000, 4690.769043, 4252.307617, 4436.922852, 4420.512695, 4493.846191, 16155.000000, 8141.000000, 8362.000000, 0.000000, 0.000000, 0.000000, 3.000000, 380.199982, 1557645231.109474, 4.000000, 4.000000, 4.000000, 4.000000, 4.000000
92.000000, 0.000000, 4722.563965, 4260.512695, 4472.820313, 4427.179199, 4517.948730, 450.000000, 8137.000000, 8357.000000, 0.000000, 0.000000, 0.000000, 3.000000, 388.199982, 1557645231.117474, 4.000000, 4.000000, 4.000000, 4.000000, 4.000000
93.000000, 0.000000, 4742.563965, 4287.692383, 4506.666504, 4440.512695, 4546.666504, 450.000000, 8141.000000, 8346.000000, 0.000000, 0.000000, 0.000000, 3.000000, 396.199982, 1557645231.125474, 4.000000, 4.000000, 4.000000, 4.000000, 4.000000
94.000000, 0.000000, 4733.333008, 4274.358887, 4483.076660, 4428.205078, 4544.615234, 450.000000, 8133.000000, 8354.000000, 0.000000, 0.000000, 0.000000, 3.000000, 404.100006, 1557645231.133374, 4.000000, 4.000000, 4.000000, 4.000000, 4.000000
95.000000, 0.000000, 4693.333008, 4251.281738, 4464.102539, 4414.871582, 4530.256348, 16155.000000, 8135.000000, 8351.000000, 0.000000, 0.000000, 0.000000, 3.000000, 412.100006, 1557645231.141374, 4.000000, 4.000000, 4.000000, 4.000000, 4.000000
96.000000, 0.000000, 4657.435547, 4253.846191, 4492.307617, 4421.025391, 4512.820313, 450.000000, 8140.000000, 8342.000000, 0.000000, 0.000000, 0.000000, 3.000000, 420.100006, 1557645231.149374, 4.000000, 4.000000, 4.000000, 4.000000, 4.000000
97.000000, 0.000000, 4676.410156, 4258.974121, 4521.538574, 4410.256348, 4501.538574, 450.000000, 8140.000000, 8342.000000, 0.000000, 0.000000, 0.000000, 3.000000, 427.800018, 1557645231.157074, 4.000000, 4.000000, 4.000000, 4.000000, 4.000000
98.000000, 0.000000, 4712.307617, 4263.589844, 4532.820313, 4400.512695, 4516.410156, 450.000000, 8140.000000, 8345.000000, 0.000000, 0.000000, 0.000000, 3.000000, 435.600006, 1557645231.164874, 4.000000, 4.000000, 4.000000, 4.000000, 4.000000
99.000000, 0.000000, 4712.307617, 4262.051270, 4534.358887, 4408.205078, 4515.897461, 16155.000000, 8146.000000, 8346.000000, 0.000000, 0.000000, 0.000000, 3.000000, 443.399994, 1557645231.172674, 4.000000, 4.000000, 4.000000, 4.000000, 4.000000
100.000000, 0.000000, 4714.358887, 4272.820313, 4534.358887, 4394.871582, 4486.666504, 450.000000, 8151.000000, 8341.000000, 0.000000, 0.000000, 0.000000, 3.000000, 451.199982, 1557645231.180474, 4.000000, 4.000000, 4.000000, 4.000000, 4.000000
101.000000, 0.000000, 4744.102539, 4302.563965, 4544.615234, 4378.974121, 4489.230469, 450.000000, 8147.000000, 8347.000000, 0.000000, 0.000000, 0.000000, 3.000000, 459.100006, 1557645231.188374, 4.000000, 4.000000, 4.000000, 4.000000, 4.000000
102.000000, 0.000000, 4757.948730, 4305.127930, 4565.127930, 4373.333008, 4508.205078, 450.000000, 8147.000000, 8341.000000, 0.000000, 0.000000, 0.000000, 3.000000, 467.100006, 1557645231.196374, 4.000000, 4.000000, 4.000000, 4.000000, 4.000000
103.000000, 0.000000, 4749.230469, 4283.076660, 4572.820313, 4358.974121, 4493.333008, 16155.000000, 8148.000000, 8341.000000, 0.000000, 0.000000, 0.000000, 3.000000, 475.100006, 1557645231.204374, 4.000000, 4.000000, 4.000000, 4.000000, 4.000000
104.000000, 0.000000, 4748.717773, 4292.820313, 4572.307617, 4383.076660, 4477.435547, 450.000000, 8144.000000, 8345.000000, 0.000000, 0.000000, 0.000000, 3.000000, 483.100006, 1557645231.212374, 4.000000, 4.000000, 4.000000, 4.000000, 4.000000
105.000000, 0.000000, 4747.179199, 4303.076660, 4576.922852, 4399.487305, 4475.897461, 450.000000, 8139.000000, 8344.000000, 0.000000, 0.000000, 0.000000, 3.000000, 491.000031, 1557645231.220274, 4.000000, 4.000000, 4.000000, 4.000000, 4.000000
106.000000, 0.000000, 4744.615234, 4285.641113, 4589.743652, 4366.666504, 4482.563965, 450.000000, 8146.000000, 8337.000000, 0.000000, 0.000000, 0.000000, 3.000000, 498.800018, 1557645231.228074, 4.000000, 4.000000, 4.000000, 4.000000, 4.000000
107.000000, 0.000000, 4758.461426, 4296.922852, 4600.000000, 4385.641113, 4513.846191, 16155.000000, 8141.000000, 8332.000000, 0.000000, 0.000000, 0.000000, 3.000000, 506.600006, 1557645231.235874, 4.000000, 4.000000, 4.000000, 4.000000, 4.000000
108.000000, 0.000000, 4765.127930, 4320.512695, 4589.230469, 4422.051270, 4534.358887, 450.000000, 8141.000000, 8351.000000, 0.000000, 0.000000, 0.000000, 3.000000, 514.399994, 1557645231.243674, 4.000000, 4.000000, 4.000000, 4.000000, 4.000000
109.000000, 0.000000, 4755.897461, 4310.256348, 4579.487305, 4378.974121, 4518.974121, 450.000000, 8143.000000, 8338.000000, 0.000000, 0.000000, 0.000000, 3.000000, 522.100006, 1557645231.251374, 4.000000, 4.000000, 4.000000, 4.000000, 4.000000
110.000000, 0.000000, 4761.025391, 4304.102539, 4587.692383, 4356.410156, 4518.974121, 450.000000, 8142.000000, 8338.000000, 0.000000, 0.000000, 0.000000, 3.000000, 530.100006, 1557645231.259374, 4.000000, 4.000000, 4.000000, 4.000000, 4.000000
111.000000, 0.000000, 4764.102539, 4314.871582, 4583.589844, 4400.000000, 4529.230469, 16155.000000, 8141.000000, 8346.000000, 0.000000, 0.000000, 0.000000, 3.000000, 538.100006, 1557645231.267374, 4.000000, 4.000000, 4.000000, 4.000000, 4.000000
112.000000, 0.000000, 4756.922852, 4308.205078, 4562.051270, 4393.333008, 4511.281738, 450.000000, 8143.000000, 8344.000000, 0.000000, 0.000000, 0.000000, 3.000000, 546.000031, 1557645231.275274, 4.000000, 4.000000, 4.000000, 4.000000, 4.000000
113.000000, 0.000000, 4776.922852, 4310.256348, 4569.230469, 4369.230469, 4510.769043, 450.000000, 8142.000000, 8344.000000, 0.000000, 0.000000, 0.000000, 3.000000, 554.000031, 1557645231.283274, 4.000000, 4.000000, 4.000000, 4.000000, 4.000000
114.000000, 0.000000, 4787.179199, 4321.538574, 4596.922852, 4391.794922, 4534.871582, 450.000000, 8140.000000, 8345.000000, 0.000000, 0.000000, 0.000000, 3.000000, 561.800018, 1557645231.291074, 4.000000, 4.000000, 4.000000, 4.000000, 4.000000
115.000000, 0.000000, 4766.153809, 4311.281738, 4594.358887, 4395.384277, 4540.000000, 16155.000000, 8146.000000, 8343.000000, 0.000000, 0.000000, 0.000000, 3.000000, 569.600006, 1557645231.298874, 4.000000, 4.000000, 4.000000, 4.000000, 4.000000
116.000000, 0.000000, 4768.717773, 4309.743652, 4582.051270, 4376.922852, 4532.820313, 450.000000, 8150.000000, 8345.000000, 0.000000, 0.000000, 0.000000, 3.000000, 577.300018, 1557645231.306574, 4.000000, 4.000000, 4.000000, 4.000000, 4.000000
117.000000, 0.000000, 4784.102539, 4318.974121, 4586.666504, 4376.922852, 4536.922852, 450.000000, 8147.000000, 8352.000000, 0.000000, 0.000000, 0.000000, 3.000000, 585.199982, 1557645231.314474, 4.000000, 4.000000, 4.000000, 4.000000, 4.000000
118.000000, 0.000000, 4779.487305, 4318.461426, 4587.692383, 4367.692383, 4552.307617, 450.000000, 8150.000000, 8351.000000, 0.000000, 0.000000, 0.000000, 3.000000, 593.199982, 1557645231.322474, 4.000000, 4.000000, 4.000000, 4.000000, 4.000000
119.000000, 0.000000, 4778.461426, 4325.641113, 4585.641113, 4353.846191, 4564.615234, 16155.000000, 8153.000000, 8337.000000, 0.000000, 0.000000, 0.000000, 3.000000, 601.100006, 1557645231.330374, 4.000000, 4.000000, 4.000000, 4.000000, 4.000000
120.000000, 0.000000, 4781.538574, 4338.974121, 4590.769043, 4379.487305, 4564.615234, 450.000000, 8155.000000, 8342.000000, 0.000000, 0.000000, 0.000000, 3.000000, 609.000031, 1557645231.338274, 4.000000, 4.000000, 4.000000, 4.000000, 4.000000
121.000000, 0.000000, 4768.205078, 4329.743652, 4592.307617, 4396.410156, 4550.769043, 450.000000, 8152.000000, 8351.000000, 0.000000, 0.000000, 0.000000, 3.000000, 617.000031, 1557645231.346274, 4.000000, 4.000000, 4.000000, 4.000000, 4.000000
122.000000, 0.000000, 4765.127930, 4323.589844, 4590.256348, 4354.358887, 4541.025391, 450.000000, 8154.000000, 8349.000000, 0.000000, 0.000000, 0.000000, 3.000000, 624.800018, 1557645231.354074, 4.000000, 4.000000, 4.000000, 4.000000, 4.000000
123.000000, 0.000000, 4789.230469, 4350.256348, 4593.846191, 4343.076660, 4553.333008, 16155.000000, 8156.000000, 8335.000000, 0.000000, 0.000000, 0.000000, 3.000000, 632.600006, 1557645231.361874, 4.000000, 4.000000, 4.000000, 4.000000, 4.000000
124.000000, 0.000000, 4776.410156, 4351.794922, 4590.769043, 4382.051270, 4555.897461, 450.000000, 8155.000000, 8331.000000, 0.000000, 0.000000, 0.000000, 3.000000, 640.300018, 1557645231.369574, 4.000000, 4.000000, 4.000000, 4.000000, 4.000000
125.000000, 0.000000, 4741.538574, 4323.076660, 4582.563965, 4366.153809, 4535.897461, 450.000000, 8161.000000, 8336.000000, 0.000000, 0.000000, 0.000000, 3.000000, 648.199982, 1557645231.377474, 4.000000, 4.000000, 4.000000, 4.000000, 4.000000
126.000000, 0.000000, 4763.589844, 4338.974121, 4595.897461, 4325.641113, 4543.589844, 450.000000, 8162.000000, 8335.000000, 0.000000, 0.000000, 0.000000, 3.000000, 656.199982, 1557645231.385474, 4.000000, 4.000000, 4.000000, 4.000000, 4.000000
127.000000, 0.000000, 4804.102539, 4373.333008, 4605.127930, 4343.076660, 4576.922852, 16155.000000, 8154.000000, 8336.000000, 0.000000, 0.000000, 0.000000, 3.000000, 664.100006, 1557645231.393374, 4.000000, 4.000000, 4.000000, 4.000000, 4.000000
128.000000, 0.000000, 4803.076660, 4364.102539, 4587.692383, 4367.692383, 4576.410156, 500.000000, 8153.000000, 8336.000000, 0.000000, 0.000000, 0.000000, 3.000000, 672.100006, 1557645231.401374, 4.000000, 4.000000, 4.000000, 4.000000, 4.000000
0.000000, 0.000000, 4798.974121, 4352.307617, 4577.435547, 4348.205078, 4549.230469, 500.000000, 8155.000000, 8336.000000, 0.000000, 0.000000, 0.000000, 3.000000, 680.100006, 1557645231.409374, 4.000000, 4.000000, 4.000000, 4.000000, 4.000000
1.000000, 0.000000, 4800.512695, 4364.615234, 4577.948730, 4326.666504, 4537.435547, 500.000000, 8152.000000, 8344.000000, 0.000000, 0.000000, 0.000000, 3.000000, 688.100006, 1557645231.417374, 4.000000, 4.000000, 4.000000, 4.000000, 4.000000
2.000000, 0.000000, 4783.076660, 4378.461426, 4570.769043, 4322.051270, 4534.871582, 16177.000000, 8148.000000, 8343.000000, 0.000000, 0.000000, 0.000000, 3.000000, 695.800006, 1557645231.425074, 4.000000, 4.000000, 4.000000, 4.000000, 4.000000
3.000000, 0.000000, 4774.358887, 4392.820313, 4571.281738, 4326.153809, 4535.897461, 500.000000, 8152.000000, 8350.000000, 0.000000, 0.000000, 0.000000, 3.000000, 703.600006, 1557645231.432874, 4.000000, 4.000000, 4.000000, 4.000000, 4.000000
4.000000, 0.000000, 4773.846191, 4391.794922, 4573.846191, 4332.307617, 4543.076660, 16082.000000, 8149.000000, 8339.000000, 0.000000, 0.000000, 0.000000, 3.000000, 711.400005, 1557645231.440674, 4.000000, 4.000000, 4.000000, 4.000000, 4.000000
5.000000, 0.000000, 4763.589844, 4371.794922, 4559.487305, 4332.307617, 4535.897461, 500.000000, 8147.000000, 8352.000000, 0.000000, 0.000000, 0.000000, 3.000000, 719.200006, 1557645231.448474, 4.000000, 4.000000, 4.000000, 4.000000, 4.000000
6.000000, 0.000000, 4772.307617, 4381.538574, 4558.974121, 4342.563965, 4533.333008, 16103.000000, 8150.000000, 8350.000000, 0.000000, 0.000000, 0.000000, 3.000000, 727.100006, 1557645231.456374, 4.000000, 4.000000, 4.000000, 4.000000, 4.000000
7.000000, 0.000000, 4771.794922, 4398.974121, 4562.051270, 4332.307617, 4538.461426, 500.000000, 8154.000000, 8338.000000, 0.000000, 0.000000, 0.000000, 3.000000, 735.100006, 1557645231.464374, 4.000000, 4.000000, 4.000000, 4.000000, 4.000000
8.000000, 0.000000, 4746.153809, 4400.512695, 4540.000000, 4306.666504, 4528.717773, 500.000000, 8153.000000, 8345.000000, 0.000000, 0.000000, 0.000000, 3.000000, 743.100006, 1557645231.472374, 4.000000, 4.000000, 4.000000, 4.000000, 4.000000
9.000000, 0.000000, 4732.820313, 4410.769043, 4527.179199, 4299.487305, 4511.281738, 325.000000, 8152.000000, 8356.000000, 0.000000, 0.000000, 0.000000, 3.000000, 751.000008, 1557645231.480274, 4.000000, 4.000000, 4.000000, 4.000000, 4.000000
10.000000, 0.000000, 4727.179199, 4406.666504, 4546.666504, 4277.948730, 4501.538574, 500.000000, 8152.000000, 8350.000000, 0.000000, 0.000000, 0.000000, 3.000000, 758.800003, 1557645231.488074, 4.000000, 4.000000, 4.000000, 4.000000, 4.000000
11.000000, 0.000000, 4711.281738, 4388.717773, 4571.794922, 4267.692383, 4493.846191, 16155.000000, 8152.000000, 8345.000000, 0.000000, 0.000000, 0.000000, 3.000000, 766.600006, 1557645231.495874, 4.000000, 4.000000, 4.000000, 4.000000, 4.000000
12.000000, 0.000000, 4691.794922, 4390.256348, 4566.153809, 4294.358887, 4478.461426, 500.000000, 8153.000000, 8348.000000, 0.000000, 0.000000, 0.000000, 3.000000, 774.400009, 1557645231.503674, 4.000000, 4.000000, 4.000000, 4.000000, 4.000000
13.000000, 0.000000, 4683.589844, 4396.922852, 4534.358887, 4314.358887, 4469.230469, 500.000000, 8158.000000, 8346.000000, 0.000000, 0.000000, 0.000000, 3.000000, 782.100006, 1557645231.511374, 4.000000, 4.000000, 4.000000, 4.000000, 4.000000
14.000000, 0.000000, 4693.333008, 4400.000000, 4511.281738, 4307.692383, 4481.538574, 450.000000, 8155.000000, 8354.000000, 0.000000, 0.000000, 0.000000, 3.000000, 790.100006, 1557645231.519374, 4.000000, 4.000000, 4.000000, 4.000000, 4.000000
15.000000, 0.000000, 4695.897461, 4411.281738, 4509.743652, 4294.871582, 4492.820313, 16155.000000, 8153.000000, 8354.000000, 0.000000, 0.000000, 0.000000, 3.000000, 798.100006, 1557645231.527374, 4.000000, 4.000000, 4.000000, 4.000000, 4.000000
16.000000, 0.000000, 4675.897461, 4424.102539, 4508.717773, 4278.974121, 4480.512695, 0.000000, 8153.000000, 8346.000000, 0.000000, 0.000000, 0.000000, 3.000000, 806.100006, 1557645231.535374, 4.000000, 4.000000, 4.000000, 4.000000, 4.000000
17.000000, 0.000000, 4671.281738, 4427.692383, 4504.615234, 4280.000000, 4472.307617, 0.000000, 8157.000000, 8350.000000, 0.000000, 0.000000, 0.000000, 3.000000, 814.000008, 1557645231.543274, 4.000000, 4.000000, 4.000000, 4.000000, 4.000000
18.000000, 0.000000, 4694.871582, 4430.769043, 4502.051270, 4293.333008, 4471.794922, 0.000000, 8156.000000, 8351.000000, 0.000000, 0.000000, 0.000000, 3.000000, 821.800003, 1557645231.551074, 4.000000, 4.000000, 4.000000, 4.000000, 4.000000
19.000000, 0.000000, 4684.615234, 4425.641113, 4498.461426, 4271.281738, 4448.717773, 0.000000, 8153.000000, 8361.000000, 0.000000, 0.000000, 0.000000, 3.000000, 829.600006, 1557645231.558874, 4.000000, 4.000000, 4.000000, 4.000000, 4.000000
20.000000, 0.000000, 4645.127930, 4420.512695, 4490.769043, 4246.666504, 4417.435547, 0.000000, 8158.000000, 8348.000000, 0.000000, 0.000000, 0.000000, 3.000000, 837.400009, 1557645231.566674, 4.000000, 4.000000, 4.000000, 4.000000, 4.000000
21.000000, 0.000000, 4644.615234, 4444.102539, 4481.538574, 4261.025391, 4411.794922, 0.000000, 8156.000000, 8345.000000, 0.000000, 0.000000, 0.000000, 3.000000, 845.200012, 1557645231.574474, 4.000000, 4.000000, 4.000000, 4.000000, 4.000000
22.000000, 0.000000, 4661.538574, 4456.410156, 4481.025391, 4277.948730, 4415.384277, 0.000000, 8154.000000, 8360.000000, 0.000000, 0.000000, 0.000000, 3.000000, 853.100006, 1557645231.582374, 4.000000, 4.000000, 4.000000, 4.000000, 4.000000
23.000000, 0.000000, 4643.076660, 4431.281738, 4474.358887, 4253.333008, 4402.051270, 0.000000, 8165.000000, 8361.000000, 0.000000, 0.000000, 0.000000, 3.000000, 861.100006, 1557645231.590374, 4.000000, 4.000000, 4.000000, 4.000000, 4.000000
