title:Bhavan happy2, recorded:12.05.19 12.58.59, timestamp started:2019-05-12T12:58:59.584074+05:30, sampling:128, subject:, labels:COUNTER INTERPOLATED AF3 T7 Pz T8 AF4 RAW_CQ GYROX GYROY MARKER MARKER_HARDWARE SYNC TIME_STAMP_s TIME_STAMP_ms TimeStamp CQ_AF3 CQ_T7 CQ_Pz CQ_T8 CQ_AF4, chan:20, samples:4230, units:emotiv
55.000000, 0.000000, 4117.948730, 4126.153809, 2961.538330, 3586.153809, 4075.384521, 0.000000, 8132.000000, 8413.000000, 1.000000, 4.000000, 0.000000, 0.000000, 0.000000, 1557646139.584074, 4.000000, 4.000000, 4.000000, 4.000000, 4.000000
56.000000, 0.000000, 4142.051270, 4169.743652, 3021.538330, 3629.743408, 4099.487305, 0.000000, 8127.000000, 8422.000000, 0.000000, 0.000000, 0.000000, 0.000000, 7.800003, 1557646139.591874, 4.000000, 4.000000, 4.000000, 4.000000, 4.000000
57.000000, 0.000000, 4191.794922, 4197.436035, 3076.923096, 3693.845947, 4160.512695, 0.000000, 8130.000000, 8421.000000, 0.000000, 0.000000, 0.000000, 0.000000, 15.600006, 1557646139.599674, 4.000000, 4.000000, 4.000000, 4.000000, 4.000000
58.000000, 0.000000, 4213.846191, 4227.692383, 3094.871826, 3701.538330, 4182.051270, 0.000000, 8123.000000, 8429.000000, 0.000000, 0.000000, 0.000000, 0.000000, 23.300003, 1557646139.607374, 4.000000, 4.000000, 4.000000, 4.000000, 4.000000
59.000000, 0.000000, 4181.025391, 4206.666504, 3049.743408, 3667.179443, 4138.461426, 0.000000, 8120.000000, 8421.000000, 0.000000, 0.000000, 0.000000, 0.000000, 31.199997, 1557646139.615274, 4.000000, 4.000000, 4.000000, 4.000000, 4.000000
60.000000, 0.000000, 4139.487305, 4140.512695, 3012.307617, 3649.230713, 4103.076660, 0.000000, 8120.000000, 8418.000000, 0.000000, 0.000000, 0.000000, 0.000000, 39.199997, 1557646139.623274, 4.000000, 4.000000, 4.000000, 4.000000, 4.000000
61.000000, 0.000000, 4163.076660, 4165.127930, 3034.358887, 3710.256348, 4130.256348, 0.000000, 8115.000000, 8425.000000, 0.000000, 0.000000, 0.000000, 0.000000, 47.199997, 1557646139.631274, 4.000000, 4.000000, 4.000000, 4.000000, 4.000000
62.000000, 0.000000, 4196.922852, 4234.871582, 3042.563965, 3788.717773, 4147.692383, 0.000000, 8119.000000, 8428.000000, 0.000000, 0.000000, 0.000000, 0.000000, 55.100006, 1557646139.639174, 4.000000, 4.000000, 4.000000, 4.000000, 4.000000
63.000000, 0.000000, 4174.871582, 4213.846191, 3007.179443, 3747.692139, 4116.410156, 0.000000, 8123.000000, 8414.000000, 0.000000, 0.000000, 0.000000, 0.000000, 62.900009, 1557646139.646974, 4.000000, 4.000000, 4.000000, 4.000000, 4.000000
64.000000, 0.000000, 4157.948730, 4158.974121, 3011.281982, 3667.692139, 4106.153809, 500.000000, 8117.000000, 8423.000000, 0.000000, 0.000000, 0.000000, 0.000000, 70.699997, 1557646139.654774, 4.000000, 4.000000, 4.000000, 4.000000, 4.000000
65.000000, 0.000000, 4182.563965, 4164.102539, 3089.230713, 3671.281982, 4127.692383, 500.000000, 8120.000000, 8413.000000, 0.000000, 0.000000, 0.000000, 0.000000, 78.500000, 1557646139.662574, 4.000000, 4.000000, 4.000000, 4.000000, 4.000000
66.000000, 0.000000, 4215.897461, 4202.563965, 3170.769043, 3714.358887, 4143.589844, 16171.000000, 8120.000000, 8403.000000, 0.000000, 0.000000, 0.000000, 0.000000, 86.300003, 1557646139.670374, 4.000000, 4.000000, 4.000000, 4.000000, 4.000000
67.000000, 0.000000, 4204.615234, 4195.384277, 3174.358887, 3728.205078, 4126.153809, 500.000000, 8122.000000, 8394.000000, 0.000000, 0.000000, 0.000000, 0.000000, 94.199997, 1557646139.678274, 4.000000, 4.000000, 4.000000, 4.000000, 4.000000
68.000000, 0.000000, 4162.563965, 4164.102539, 3153.333252, 3707.179443, 4105.127930, 16133.000000, 8123.000000, 8393.000000, 0.000000, 0.000000, 0.000000, 0.000000, 102.199997, 1557646139.686274, 4.000000, 4.000000, 4.000000, 4.000000, 4.000000
69.000000, 0.000000, 4178.974121, 4191.794922, 3196.410156, 3710.256348, 4126.666504, 500.000000, 8127.000000, 8391.000000, 0.000000, 0.000000, 0.000000, 0.000000, 110.199997, 1557646139.694274, 4.000000, 4.000000, 4.000000, 4.000000, 4.000000
70.000000, 0.000000, 4226.153809, 4230.256348, 3240.512695, 3753.845947, 4145.641113, 16146.000000, 8129.000000, 8394.000000, 0.000000, 0.000000, 0.000000, 0.000000, 118.199997, 1557646139.702274, 4.000000, 4.000000, 4.000000, 4.000000, 4.000000
71.000000, 0.000000, 4198.974121, 4197.948730, 3226.666504, 3780.000000, 4116.922852, 500.000000, 8122.000000, 8393.000000, 0.000000, 0.000000, 0.000000, 0.000000, 126.099991, 1557646139.710174, 4.000000, 4.000000, 4.000000, 4.000000, 4.000000
72.000000, 0.000000, 4138.974121, 4127.179199, 3206.153809, 3729.230713, 4080.000000, 500.000000, 8126.000000, 8379.000000, 0.000000, 0.000000, 0.000000, 0.000000, 133.900009, 1557646139.717974, 4.000000, 4.000000, 4.000000, 4.000000, 4.000000
73.000000, 0.000000, 4157.948730, 4135.384277, 3233.333252, 3670.256348, 4093.333252, 16143.000000, 8125.000000, 8379.000000, 0.000000, 0.000000, 0.000000, 0.000000, 141.699997, 1557646139.725774, 4.000000, 4.000000, 4.000000, 4.000000, 4.000000
74.000000, 0.000000, 4204.102539, 4199.487305, 3281.538330, 3718.461426, 4127.179199, 500.000000, 8125.000000, 8379.000000, 0.000000, 0.000000, 0.000000, 0.000000, 149.500015, 1557646139.733574, 4.000000, 4.000000, 4.000000, 4.000000, 4.000000
75.000000, 0.000000, 4190.769043, 4202.563965, 3281.025635, 3788.717773, 4117.948730, 16157.000000, 8130.000000, 8373.000000, 0.000000, 0.000000, 0.000000, 0.000000, 157.300003, 1557646139.741374, 4.000000, 4.000000, 4.000000, 4.000000, 4.000000
76.000000, 0.000000, 4174.358887, 4181.025391, 3264.102539, 3752.820313, 4096.922852, 500.000000, 8134.000000, 8362.000000, 0.000000, 0.000000, 0.000000, 0.000000, 165.199997, 1557646139.749274, 4.000000, 4.000000, 4.000000, 4.000000, 4.000000
77.000000, 0.000000, 4150.769043, 4143.076660, 3264.102539, 3671.794678, 4070.769043, 500.000000, 8135.000000, 8364.000000, 0.000000, 0.000000, 0.000000, 0.000000, 173.199997, 1557646139.757274, 4.000000, 4.000000, 4.000000, 4.000000, 4.000000
78.000000, 0.000000, 4127.692383, 4120.512695, 3276.410156, 3682.563965, 4044.102539, 450.000000, 8137.000000, 8373.000000, 0.000000, 0.000000, 0.000000, 0.000000, 181.199997, 1557646139.765274, 4.000000, 4.000000, 4.000000, 4.000000, 4.000000
79.000000, 0.000000, 4170.769043, 4190.256348, 3320.000000, 3758.974365, 4074.358887, 16157.000000, 8141.000000, 8360.000000, 0.000000, 0.000000, 0.000000, 0.000000, 189.199997, 1557646139.773274, 4.000000, 4.000000, 4.000000, 4.000000, 4.000000
80.000000, 0.000000, 4202.051270, 4211.281738, 3350.769043, 3753.333252, 4114.871582, 450.000000, 8147.000000, 8353.000000, 0.000000, 0.000000, 0.000000, 0.000000, 197.000015, 1557646139.781074, 4.000000, 4.000000, 4.000000, 4.000000, 4.000000
81.000000, 0.000000, 4159.487305, 4122.051270, 3313.846191, 3726.153809, 4081.025635, 450.000000, 8151.000000, 8357.000000, 0.000000, 0.000000, 0.000000, 0.000000, 204.699997, 1557646139.788774, 4.000000, 4.000000, 4.000000, 4.000000, 4.000000
82.000000, 0.000000, 4170.256348, 4169.743652, 3329.743408, 3789.230713, 4065.640869, 450.000000, 8147.000000, 8356.000000, 0.000000, 0.000000, 0.000000, 0.000000, 212.500015, 1557646139.796574, 4.000000, 4.000000, 4.000000, 4.000000, 4.000000
83.000000, 0.000000, 4233.333008, 4277.948730, 3415.384521, 3838.974365, 4117.948730, 16157.000000, 8147.000000, 8358.000000, 0.000000, 0.000000, 0.000000, 0.000000, 220.300003, 1557646139.804374, 4.000000, 4.000000, 4.000000, 4.000000, 4.000000
84.000000, 0.000000, 4171.281738, 4149.230469, 3373.333252, 3760.000000, 4072.820313, 450.000000, 8135.000000, 8362.000000, 0.000000, 0.000000, 0.000000, 0.000000, 228.199997, 1557646139.812274, 4.000000, 4.000000, 4.000000, 4.000000, 4.000000
85.000000, 0.000000, 4090.769043, 4038.974365, 3291.794678, 3697.435791, 3982.563965, 450.000000, 8142.000000, 8354.000000, 0.000000, 0.000000, 0.000000, 0.000000, 236.000015, 1557646139.820074, 4.000000, 4.000000, 4.000000, 4.000000, 4.000000
86.000000, 0.000000, 4137.436035, 4140.000000, 3357.435791, 3755.897461, 4016.410156, 450.000000, 8137.000000, 8358.000000, 0.000000, 0.000000, 0.000000, 0.000000, 244.000015, 1557646139.828074, 4.000000, 4.000000, 4.000000, 4.000000, 4.000000
87.000000, 0.000000, 4173.333008, 4187.692383, 3424.102539, 3769.743408, 4064.102539, 16157.000000, 8129.000000, 8365.000000, 0.000000, 0.000000, 0.000000, 0.000000, 252.000015, 1557646139.836074, 4.000000, 4.000000, 4.000000, 4.000000, 4.000000
88.000000, 0.000000, 4143.076660, 4160.000000, 3394.871826, 3705.640869, 4022.563965, 450.000000, 8125.000000, 8373.000000, 0.000000, 0.000000, 0.000000, 0.000000, 260.000015, 1557646139.844074, 4.000000, 4.000000, 4.000000, 4.000000, 4.000000
89.000000, 0.000000, 4174.358887, 4205.127930, 3418.974365, 3753.333252, 4030.769043, 450.000000, 8126.000000, 8369.000000, 0.000000, 0.000000, 0.000000, 0.000000, 267.800003, 1557646139.851874, 4.000000, 4.000000, 4.000000, 4.000000, 4.000000
90.000000, 0.000000, 4227.179199, 4233.846191, 3477.948730, 3834.358887, 4092.820313, 450.000000, 8128.000000, 8381.000000, 0.000000, 0.000000, 0.000000, 0.000000, 275.500015, 1557646139.859574, 4.000000, 4.000000, 4.000000, 4.000000, 4.000000
91.000000, 0.000000, 4146.153809, 4126.666504, 3411.794678, 3737.948730, 4020.000000, 16157.000000, 8127.000000, 8385.000000, 0.000000, 0.000000, 0.000000, 0.000000, 283.300003, 1557646139.867374, 4.000000, 4.000000, 4.000000, 4.000000, 4.000000
92.000000, 0.000000, 4105.641113, 4097.948730, 3391.281982, 3664.615234, 3965.128174, 450.000000, 8127.000000, 8392.000000, 0.000000, 0.000000, 0.000000, 0.000000, 291.300003, 1557646139.875374, 4.000000, 4.000000, 4.000000, 4.000000, 4.000000
93.000000, 0.000000, 4216.922852, 4238.974121, 3520.000000, 3820.000000, 4081.025635, 450.000000, 8125.000000, 8379.000000, 0.000000, 0.000000, 0.000000, 0.000000, 299.300003, 1557646139.883374, 4.000000, 4.000000, 4.000000, 4.000000, 4.000000
94.000000, 0.000000, 4222.051270, 4249.743652, 3530.769043, 3875.384521, 4101.025391, 450.000000, 8126.000000, 8375.000000, 0.000000, 0.000000, 0.000000, 0.000000, 307.300003, 1557646139.891374, 4.000000, 4.000000, 4.000000, 4.000000, 4.000000
95.000000, 0.000000, 4107.692383, 4101.538574, 3437.948730, 3762.051270, 3972.820313, 16157.000000, 8120.000000, 8379.000000, 0.000000, 0.000000, 0.000000, 0.000000, 315.199997, 1557646139.899274, 4.000000, 4.000000, 4.000000, 4.000000, 4.000000
96.000000, 0.000000, 4141.025391, 4122.051270, 3517.435791, 3774.871582, 3995.384521, 450.000000, 8111.000000, 8379.000000, 0.000000, 0.000000, 0.000000, 0.000000, 323.199997, 1557646139.907274, 4.000000, 4.000000, 4.000000, 4.000000, 4.000000
97.000000, 0.000000, 4213.333008, 4225.127930, 3605.640869, 3825.640869, 4072.820313, 450.000000, 8106.000000, 8381.000000, 0.000000, 0.000000, 0.000000, 0.000000, 331.000015, 1557646139.915074, 4.000000, 4.000000, 4.000000, 4.000000, 4.000000
98.000000, 0.000000, 4151.794922, 4176.410156, 3530.769043, 3752.307617, 3993.333252, 450.000000, 8103.000000, 8384.000000, 0.000000, 0.000000, 0.000000, 0.000000, 338.800003, 1557646139.922874, 4.000000, 4.000000, 4.000000, 4.000000, 4.000000
99.000000, 0.000000, 4109.230469, 4120.000000, 3504.615234, 3711.281982, 3925.640869, 16157.000000, 8106.000000, 8386.000000, 0.000000, 0.000000, 0.000000, 0.000000, 346.500015, 1557646139.930574, 4.000000, 4.000000, 4.000000, 4.000000, 4.000000
100.000000, 0.000000, 4136.922852, 4161.538574, 3569.743408, 3758.974365, 3960.512695, 450.000000, 8103.000000, 8396.000000, 0.000000, 0.000000, 0.000000, 0.000000, 354.300003, 1557646139.938374, 4.000000, 4.000000, 4.000000, 4.000000, 4.000000
101.000000, 0.000000, 4151.281738, 4195.897461, 3595.897461, 3762.051270, 3982.051270, 450.000000, 8082.000000, 8406.000000, 0.000000, 0.000000, 0.000000, 0.000000, 362.200027, 1557646139.946274, 4.000000, 4.000000, 4.000000, 4.000000, 4.000000
102.000000, 0.000000, 4149.230469, 4181.025391, 3605.640869, 3774.358887, 3966.153809, 450.000000, 8085.000000, 8393.000000, 0.000000, 0.000000, 0.000000, 0.000000, 370.200027, 1557646139.954274, 4.000000, 4.000000, 4.000000, 4.000000, 4.000000
103.000000, 0.000000, 4121.538574, 4135.384277, 3602.051270, 3798.461426, 3937.948730, 16157.000000, 8087.000000, 8391.000000, 0.000000, 0.000000, 0.000000, 0.000000, 378.200027, 1557646139.962274, 4.000000, 4.000000, 4.000000, 4.000000, 4.000000
104.000000, 0.000000, 4122.051270, 4145.127930, 3610.256348, 3750.256348, 3936.410156, 450.000000, 8083.000000, 8403.000000, 0.000000, 0.000000, 0.000000, 0.000000, 386.099991, 1557646139.970174, 4.000000, 4.000000, 4.000000, 4.000000, 4.000000
105.000000, 0.000000, 4191.281738, 4225.641113, 3690.256348, 3761.025635, 3987.692139, 450.000000, 8065.000000, 8405.000000, 0.000000, 0.000000, 0.000000, 0.000000, 393.899979, 1557646139.977974, 4.000000, 4.000000, 4.000000, 4.000000, 4.000000
106.000000, 0.000000, 4198.461426, 4230.769043, 3719.487061, 3829.743408, 3986.153809, 450.000000, 8057.000000, 8398.000000, 0.000000, 0.000000, 0.000000, 0.000000, 401.700027, 1557646139.985774, 4.000000, 4.000000, 4.000000, 4.000000, 4.000000
107.000000, 0.000000, 4128.205078, 4139.487305, 3643.589600, 3814.358887, 3905.128174, 16157.000000, 8027.000000, 8387.000000, 0.000000, 0.000000, 0.000000, 0.000000, 409.500015, 1557646139.993574, 4.000000, 4.000000, 4.000000, 4.000000, 4.000000
108.000000, 0.000000, 4101.025391, 4098.461426, 3618.461426, 3717.435791, 3876.410156, 450.000000, 8005.000000, 8395.000000, 0.000000, 0.000000, 0.000000, 0.000000, 417.200027, 1557646140.001274, 4.000000, 4.000000, 4.000000, 4.000000, 4.000000
109.000000, 0.000000, 4109.743652, 4146.153809, 3671.794678, 3711.794678, 3904.102539, 450.000000, 7992.000000, 8387.000000, 0.000000, 0.000000, 0.000000, 0.000000, 425.099991, 1557646140.009174, 4.000000, 4.000000, 4.000000, 4.000000, 4.000000
110.000000, 0.000000, 4127.179199, 4189.743652, 3711.794678, 3774.871582, 3911.794678, 450.000000, 7947.000000, 8381.000000, 0.000000, 0.000000, 0.000000, 0.000000, 433.099991, 1557646140.017174, 4.000000, 4.000000, 4.000000, 4.000000, 4.000000
111.000000, 0.000000, 4143.076660, 4186.666504, 3733.845947, 3759.487061, 3898.461426, 16157.000000, 7920.000000, 8380.000000, 0.000000, 0.000000, 0.000000, 0.000000, 441.099991, 1557646140.025174, 4.000000, 4.000000, 4.000000, 4.000000, 4.000000
112.000000, 0.000000, 4149.743652, 4214.871582, 3763.076904, 3771.794678, 3912.820313, 450.000000, 7871.000000, 8381.000000, 0.000000, 0.000000, 0.000000, 0.000000, 449.099991, 1557646140.033174, 4.000000, 4.000000, 4.000000, 4.000000, 4.000000
113.000000, 0.000000, 4182.051270, 4252.820313, 3783.076904, 3886.666504, 3945.640869, 450.000000, 7853.000000, 8387.000000, 0.000000, 0.000000, 0.000000, 0.000000, 457.000015, 1557646140.041074, 4.000000, 4.000000, 4.000000, 4.000000, 4.000000
114.000000, 0.000000, 4243.589844, 4220.000000, 3789.230713, 3910.769043, 3981.025635, 450.000000, 7818.000000, 8397.000000, 0.000000, 0.000000, 0.000000, 0.000000, 464.800003, 1557646140.048874, 4.000000, 4.000000, 4.000000, 4.000000, 4.000000
115.000000, 0.000000, 4254.871582, 4158.974121, 3768.205078, 3778.974365, 3982.563965, 16157.000000, 7805.000000, 8393.000000, 0.000000, 0.000000, 0.000000, 0.000000, 472.599991, 1557646140.056674, 4.000000, 4.000000, 4.000000, 4.000000, 4.000000
116.000000, 0.000000, 4257.436035, 4172.820313, 3770.256348, 3769.230713, 3984.615234, 450.000000, 7785.000000, 8398.000000, 0.000000, 0.000000, 0.000000, 0.000000, 480.399979, 1557646140.064474, 4.000000, 4.000000, 4.000000, 4.000000, 4.000000
117.000000, 0.000000, 4306.153809, 4215.384277, 3828.717773, 3853.845947, 4036.923096, 450.000000, 7780.000000, 8417.000000, 0.000000, 0.000000, 0.000000, 0.000000, 488.399979, 1557646140.072474, 4.000000, 4.000000, 4.000000, 4.000000, 4.000000
118.000000, 0.000000, 4324.615234, 4191.794922, 3856.923096, 3854.871582, 4070.769043, 450.000000, 7775.000000, 8429.000000, 0.000000, 0.000000, 0.000000, 0.000000, 496.300003, 1557646140.080374, 4.000000, 4.000000, 4.000000, 4.000000, 4.000000
119.000000, 0.000000, 4298.974121, 4165.127930, 3843.589600, 3862.051270, 4061.538330, 16157.000000, 7776.000000, 8421.000000, 0.000000, 0.000000, 0.000000, 0.000000, 504.300003, 1557646140.088374, 4.000000, 4.000000, 4.000000, 4.000000, 4.000000
120.000000, 0.000000, 4327.179199, 4254.871582, 3903.589600, 3931.794678, 4105.127930, 450.000000, 7793.000000, 8420.000000, 0.000000, 0.000000, 0.000000, 0.000000, 512.300003, 1557646140.096374, 4.000000, 4.000000, 4.000000, 4.000000, 4.000000
121.000000, 0.000000, 4344.102539, 4291.794922, 3953.845947, 3951.281982, 4132.307617, 450.000000, 7801.000000, 8427.000000, 0.000000, 0.000000, 0.000000, 0.000000, 520.300003, 1557646140.104374, 4.000000, 4.000000, 4.000000, 4.000000, 4.000000
122.000000, 0.000000, 4303.589844, 4228.205078, 3934.871582, 3943.589600, 4100.000000, 450.000000, 7819.000000, 8432.000000, 0.000000, 0.000000, 0.000000, 0.000000, 528.200027, 1557646140.112274, 4.000000, 4.000000, 4.000000, 4.000000, 4.000000
123.000000, 0.000000, 4291.794922, 4253.846191, 3952.307617, 3998.974365, 4112.307617, 16157.000000, 7830.000000, 8430.000000, 0.000000, 0.000000, 0.000000, 0.000000, 536.200027, 1557646140.120274, 4.000000, 4.000000, 4.000000, 4.000000, 4.000000
124.000000, 0.000000, 4258.461426, 4243.589844, 3947.692139, 3975.384521, 4089.743408, 450.000000, 7841.000000, 8419.000000, 0.000000, 0.000000, 0.000000, 0.000000, 544.200027, 1557646140.128274, 4.000000, 4.000000, 4.000000, 4.000000, 4.000000
125.000000, 0.000000, 4216.410156, 4169.743652, 3922.051270, 3908.717773, 4024.615234, 450.000000, 7868.000000, 8415.000000, 0.000000, 0.000000, 0.000000, 0.000000, 552.200027, 1557646140.136274, 4.000000, 4.000000, 4.000000, 4.000000, 4.000000
126.000000, 0.000000, 4253.846191, 4244.615234, 3978.974365, 3966.153809, 4058.974365, 450.000000, 7875.000000, 8415.000000, 0.000000, 0.000000, 0.000000, 0.000000, 560.200027, 1557646140.144274, 4.000000, 4.000000, 4.000000, 4.000000, 4.000000
127.000000, 0.000000, 4258.461426, 4300.512695, 4004.102539, 3999.487061, 4085.128174, 16157.000000, 7893.000000, 8422.000000, 0.000000, 0.000000, 0.000000, 0.000000, 568.099991, 1557646140.152174, 4.000000, 4.000000, 4.000000, 4.000000, 4.000000
128.000000, 0.000000, 4181.025391, 4169.743652, 3931.281982, 3901.025635, 4002.563965, 500.000000, 7910.000000, 8415.000000, 0.000000, 0.000000, 0.000000, 0.000000, 576.099991, 1557646140.160174, 4.000000, 4.000000, 4.000000, 4.000000, 4.000000
0.000000, 0.000000, 4163.589844, 4131.281738, 3926.153809, 3876.923096, 3966.153809, 500.000000, 7939.000000, 8408.000000, 0.000000, 0.000000, 0.000000, 0.000000, 584.099991, 1557646140.168174, 4.000000, 4.000000, 4.000000, 4.000000, 4.000000
1.000000, 0.000000, 4206.666504, 4234.871582, 3989.743408, 3959.487061, 4006.153809, 500.000000, 7949.000000, 8430.000000, 0.000000, 0.000000, 0.000000, 0.000000, 592.099991, 1557646140.176174, 4.000000, 4.000000, 4.000000, 4.000000, 4.000000
2.000000, 0.000000, 4206.153809, 4240.000000, 4001.538330, 3945.640869, 4001.538330, 16179.000000, 7980.000000, 8439.000000, 0.000000, 0.000000, 0.000000, 0.000000, 600.099991, 1557646140.184174, 4.000000, 4.000000, 4.000000, 4.000000, 4.000000
3.000000, 0.000000, 4201.538574, 4224.615234, 4014.358887, 3915.897461, 3998.974365, 500.000000, 8007.000000, 8428.000000, 0.000000, 0.000000, 0.000000, 0.000000, 608.000015, 1557646140.192074, 4.000000, 4.000000, 4.000000, 4.000000, 4.000000
4.000000, 0.000000, 4201.025391, 4262.563965, 4048.717773, 3987.179443, 4024.615234, 16143.000000, 8051.000000, 8438.000000, 0.000000, 0.000000, 0.000000, 0.000000, 616.000015, 1557646140.200074, 4.000000, 4.000000, 4.000000, 4.000000, 4.000000
5.000000, 0.000000, 4161.538574, 4212.820313, 4028.717773, 3998.974365, 3993.333252, 500.000000, 8072.000000, 8450.000000, 0.000000, 0.000000, 0.000000, 0.000000, 624.000015, 1557646140.208074, 4.000000, 4.000000, 4.000000, 4.000000, 4.000000
6.000000, 0.000000, 4138.974121, 4155.384277, 4001.538330, 3924.615234, 3950.256348, 16141.000000, 8103.000000, 8429.000000, 0.000000, 0.000000, 0.000000, 0.000000, 632.000015, 1557646140.216074, 4.000000, 4.000000, 4.000000, 4.000000, 4.000000
7.000000, 0.000000, 4194.358887, 4248.717773, 4062.051270, 3949.743408, 3990.256348, 500.000000, 8119.000000, 8419.000000, 0.000000, 0.000000, 0.000000, 0.000000, 639.899979, 1557646140.223974, 4.000000, 4.000000, 4.000000, 4.000000, 4.000000
8.000000, 0.000000, 4220.512695, 4281.025391, 4101.538574, 4022.563965, 4012.820313, 500.000000, 8144.000000, 8422.000000, 0.000000, 0.000000, 0.000000, 0.000000, 647.899979, 1557646140.231974, 4.000000, 4.000000, 4.000000, 4.000000, 4.000000
9.000000, 0.000000, 4173.846191, 4194.871582, 4061.538330, 4029.743408, 3972.307617, 16135.000000, 8158.000000, 8416.000000, 0.000000, 0.000000, 0.000000, 0.000000, 655.899979, 1557646140.239974, 4.000000, 4.000000, 4.000000, 4.000000, 4.000000
10.000000, 0.000000, 4155.384277, 4221.025391, 4054.871582, 4020.512695, 3971.794678, 500.000000, 8166.000000, 8405.000000, 0.000000, 0.000000, 0.000000, 0.000000, 663.899979, 1557646140.247974, 4.000000, 4.000000, 4.000000, 4.000000, 4.000000
11.000000, 0.000000, 4145.641113, 4254.871582, 4080.512695, 4007.179443, 3976.923096, 16173.000000, 8176.000000, 8408.000000, 0.000000, 0.000000, 0.000000, 0.000000, 671.899979, 1557646140.255974, 4.000000, 4.000000, 4.000000, 4.000000, 4.000000
12.000000, 0.000000, 4118.974121, 4185.641113, 4071.281982, 3981.025635, 3946.666504, 500.000000, 8185.000000, 8395.000000, 0.000000, 0.000000, 0.000000, 0.000000, 679.800003, 1557646140.263874, 4.000000, 4.000000, 4.000000, 4.000000, 4.000000
13.000000, 0.000000, 4132.820313, 4195.384277, 4031.794678, 3987.692139, 3954.358887, 500.000000, 8177.000000, 8376.000000, 0.000000, 0.000000, 0.000000, 0.000000, 687.800003, 1557646140.271874, 4.000000, 4.000000, 4.000000, 4.000000, 4.000000
14.000000, 0.000000, 4158.974121, 4272.307617, 3996.410156, 3988.205078, 3983.076904, 450.000000, 8169.000000, 8375.000000, 0.000000, 0.000000, 0.000000, 0.000000, 695.800003, 1557646140.279874, 4.000000, 4.000000, 4.000000, 4.000000, 4.000000
15.000000, 0.000000, 4146.666504, 4252.820313, 3993.845947, 3996.410156, 3970.769043, 16173.000000, 8139.000000, 8359.000000, 0.000000, 0.000000, 0.000000, 0.000000, 703.800003, 1557646140.287874, 4.000000, 4.000000, 4.000000, 4.000000, 4.000000
16.000000, 0.000000, 4135.384277, 4201.538574, 3960.512695, 4029.743408, 3949.230713, 0.000000, 8117.000000, 8337.000000, 0.000000, 0.000000, 0.000000, 0.000000, 711.800003, 1557646140.295874, 4.000000, 4.000000, 4.000000, 4.000000, 4.000000
17.000000, 0.000000, 4137.948730, 4209.230469, 3849.230713, 3963.589600, 3943.589600, 0.000000, 8058.000000, 8339.000000, 0.000000, 0.000000, 0.000000, 0.000000, 719.700027, 1557646140.303774, 4.000000, 4.000000, 4.000000, 4.000000, 4.000000
18.000000, 0.000000, 4149.230469, 4266.153809, 3811.794678, 3935.897461, 3954.358887, 0.000000, 8021.000000, 8354.000000, 0.000000, 0.000000, 0.000000, 0.000000, 727.700027, 1557646140.311774, 4.000000, 4.000000, 4.000000, 4.000000, 4.000000
19.000000, 0.000000, 4120.000000, 4234.871582, 3840.512695, 3988.205078, 3923.076904, 0.000000, 7937.000000, 8360.000000, 0.000000, 0.000000, 0.000000, 0.000000, 735.700027, 1557646140.319774, 4.000000, 4.000000, 4.000000, 4.000000, 4.000000
20.000000, 0.000000, 4076.410156, 4138.974121, 3856.923096, 3937.435791, 3882.051270, 0.000000, 7901.000000, 8363.000000, 0.000000, 0.000000, 0.000000, 0.000000, 743.700027, 1557646140.327774, 4.000000, 4.000000, 4.000000, 4.000000, 4.000000
21.000000, 0.000000, 4123.589844, 4183.589844, 3945.128174, 3960.000000, 3936.923096, 0.000000, 7831.000000, 8395.000000, 0.000000, 0.000000, 0.000000, 0.000000, 751.599991, 1557646140.335674, 4.000000, 4.000000, 4.000000, 4.000000, 4.000000
22.000000, 0.000000, 4187.179199, 4260.512695, 4032.820313, 4087.692139, 4002.563965, 0.000000, 7801.000000, 8412.000000, 0.000000, 0.000000, 0.000000, 0.000000, 759.599991, 1557646140.343674, 4.000000, 4.000000, 4.000000, 4.000000, 4.000000
23.000000, 0.000000, 4213.333008, 4252.820313, 4039.487061, 4100.512695, 4017.435791, 0.000000, 7751.000000, 8449.000000, 0.000000, 0.000000, 0.000000, 0.000000, 767.599991, 1557646140.351674, 4.000000, 4.000000, 4.000000, 4.000000, 4.000000
24.000000, 0.000000, 4227.179199, 4263.076660, 4029.230713, 4042.563965, 4024.615234, 0.000000, 7723.000000, 8466.000000, 0.000000, 0.000000, 0.000000, 0.000000, 775.599991, 1557646140.359674, 4.000000, 4.000000, 4.000000, 4.000000, 4.000000
25.000000, 0.000000, 4198.974121, 4231.794922, 3986.666504, 3991.281982, 4012.307617, 0.000000, 7718.000000, 8478.000000, 0.000000, 0.000000, 0.000000, 0.000000, 783.599991, 1557646140.367674, 4.000000, 4.000000, 4.000000, 4.000000, 4.000000
26.000000, 0.000000, 4168.205078, 4131.794922, 3936.923096, 3973.333252, 3997.435791, 0.000000, 7708.000000, 8473.000000, 0.000000, 0.000000, 0.000000, 0.000000, 791.500015, 1557646140.375574, 4.000000, 4.000000, 4.000000, 4.000000, 4.000000
27.000000, 0.000000, 4220.000000, 4176.922852, 3991.281982, 4074.871582, 4053.333252, 0.000000, 7704.000000, 8482.000000, 0.000000, 0.000000, 0.000000, 0.000000, 799.500015, 1557646140.383574, 4.000000, 4.000000, 4.000000, 4.000000, 4.000000
28.000000, 0.000000, 4288.205078, 4311.281738, 4068.717773, 4138.974121, 4128.717773, 0.000000, 7709.000000, 8487.000000, 0.000000, 0.000000, 0.000000, 0.000000, 807.500015, 1557646140.391574, 4.000000, 4.000000, 4.000000, 4.000000, 4.000000
29.000000, 0.000000, 4255.897461, 4264.615234, 4042.563965, 4063.589600, 4101.538574, 0.000000, 7718.000000, 8480.000000, 0.000000, 0.000000, 0.000000, 0.000000, 815.500015, 1557646140.399574, 4.000000, 4.000000, 4.000000, 4.000000, 4.000000
30.000000, 0.000000, 4219.487305, 4201.538574, 4032.820313, 4080.512695, 4064.615234, 0.000000, 7724.000000, 8474.000000, 0.000000, 0.000000, 0.000000, 0.000000, 823.399979, 1557646140.407474, 4.000000, 4.000000, 4.000000, 4.000000, 4.000000
31.000000, 0.000000, 4236.410156, 4256.922852, 4084.615234, 4141.538574, 4098.461426, 0.000000, 7735.000000, 8483.000000, 0.000000, 0.000000, 0.000000, 0.000000, 831.399979, 1557646140.415474, 4.000000, 4.000000, 4.000000, 4.000000, 4.000000
32.000000, 0.000000, 4222.051270, 4246.666504, 4092.307617, 4084.102539, 4096.922852, 0.000000, 7750.000000, 8481.000000, 0.000000, 0.000000, 0.000000, 0.000000, 839.400003, 1557646140.423474, 4.000000, 4.000000, 4.000000, 4.000000, 4.000000
33.000000, 0.000000, 4177.948730, 4198.461426, 4079.487061, 4042.563965, 4045.640869, 0.000000, 7758.000000, 8471.000000, 0.000000, 0.000000, 0.000000, 0.000000, 847.400003, 1557646140.431474, 4.000000, 4.000000, 4.000000, 4.000000, 4.000000
34.000000, 0.000000, 4191.794922, 4241.025391, 4125.127930, 4088.205078, 4053.333252, 0.000000, 7759.000000, 8478.000000, 0.000000, 0.000000, 0.000000, 0.000000, 855.400003, 1557646140.439474, 4.000000, 4.000000, 4.000000, 4.000000, 4.000000
35.000000, 0.000000, 4245.127930, 4281.025391, 4189.230469, 4128.717773, 4108.205078, 0.000000, 7765.000000, 8479.000000, 0.000000, 0.000000, 0.000000, 0.000000, 863.300003, 1557646140.447374, 4.000000, 4.000000, 4.000000, 4.000000, 4.000000
36.000000, 0.000000, 4257.436035, 4267.179199, 4217.948730, 4154.871582, 4120.000000, 0.000000, 7768.000000, 8487.000000, 0.000000, 0.000000, 0.000000, 0.000000, 871.300003, 1557646140.455374, 4.000000, 4.000000, 4.000000, 4.000000, 4.000000
37.000000, 0.000000, 4223.589844, 4252.820313, 4162.563965, 4107.692383, 4081.538330, 0.000000, 7766.000000, 8487.000000, 0.000000, 0.000000, 0.000000, 0.000000, 879.300003, 1557646140.463374, 4.000000, 4.000000, 4.000000, 4.000000, 4.000000
38.000000, 0.000000, 4205.641113, 4255.897461, 4041.025635, 4054.871582, 4066.153809, 0.000000, 7772.000000, 8487.000000, 0.000000, 0.000000, 0.000000, 0.000000, 887.300003, 1557646140.471374, 4.000000, 4.000000, 4.000000, 4.000000, 4.000000
39.000000, 0.000000, 4236.922852, 4286.666504, 3991.281982, 4115.384277, 4115.897461, 0.000000, 7785.000000, 8480.000000, 0.000000, 0.000000, 0.000000, 0.000000, 895.300003, 1557646140.479374, 4.000000, 4.000000, 4.000000, 4.000000, 4.000000
40.000000, 0.000000, 4243.076660, 4287.179199, 3998.974365, 4168.717773, 4127.692383, 0.000000, 7788.000000, 8464.000000, 0.000000, 0.000000, 0.000000, 0.000000, 903.200005, 1557646140.487274, 4.000000, 4.000000, 4.000000, 4.000000, 4.000000
41.000000, 0.000000, 4216.922852, 4274.358887, 3986.666504, 4136.410156, 4087.179443, 0.000000, 7817.000000, 8465.000000, 0.000000, 0.000000, 0.000000, 0.000000, 911.200005, 1557646140.495274, 4.000000, 4.000000, 4.000000, 4.000000, 4.000000
42.000000, 0.000000, 4233.846191, 4321.025391, 4012.307617, 4113.846191, 4108.717773, 0.000000, 7834.000000, 8445.000000, 0.000000, 0.000000, 0.000000, 0.000000, 919.200005, 1557646140.503274, 4.000000, 4.000000, 4.000000, 4.000000, 4.000000
43.000000, 0.000000, 4230.256348, 4280.512695, 4013.333252, 4133.333008, 4106.153809, 0.000000, 7872.000000, 8426.000000, 0.000000, 0.000000, 0.000000, 0.000000, 927.200005, 1557646140.511274, 4.000000, 4.000000, 4.000000, 4.000000, 4.000000
44.000000, 0.000000, 4223.589844, 4228.717773, 3972.307617, 4157.948730, 4068.717773, 0.000000, 7899.000000, 8435.000000, 0.000000, 0.000000, 0.000000, 0.000000, 935.100006, 1557646140.519174, 4.000000, 4.000000, 4.000000, 4.000000, 4.000000
45.000000, 0.000000, 4262.051270, 4319.487305, 4000.512695, 4148.717773, 4106.666504, 0.000000, 7960.000000, 8424.000000, 0.000000, 0.000000, 0.000000, 0.000000, 943.100006, 1557646140.527174, 4.000000, 4.000000, 4.000000, 4.000000, 4.000000
46.000000, 0.000000, 4241.538574, 4322.563965, 4020.000000, 4083.076904, 4115.384277, 0.000000, 7994.000000, 8405.000000, 0.000000, 0.000000, 0.000000, 0.000000, 951.100006, 1557646140.535174, 4.000000, 4.000000, 4.000000, 4.000000, 4.000000
47.000000, 0.000000, 4212.820313, 4236.922852, 4004.615234, 4096.922852, 4083.589600, 0.000000, 8044.000000, 8392.000000, 0.000000, 0.000000, 0.000000, 0.000000, 959.100006, 1557646140.543174, 4.000000, 4.000000, 4.000000, 4.000000, 4.000000
48.000000, 0.000000, 4279.487305, 4321.025391, 4064.102539, 4207.179199, 4136.922852, 0.000000, 8077.000000, 8388.000000, 0.000000, 0.000000, 0.000000, 0.000000, 967.100006, 1557646140.551174, 4.000000, 4.000000, 4.000000, 4.000000, 4.000000
49.000000, 0.000000, 4275.384277, 4355.384277, 4079.487061, 4148.205078, 4135.897461, 0.000000, 8148.000000, 8394.000000, 0.000000, 0.000000, 0.000000, 0.000000, 975.000000, 1557646140.559074, 4.000000, 4.000000, 4.000000, 4.000000, 4.000000
50.000000, 0.000000, 4183.589844, 4215.384277, 4011.794678, 4035.384521, 4052.820313, 0.000000, 8172.000000, 8395.000000, 0.000000, 0.000000, 0.000000, 0.000000, 983.000000, 1557646140.567074, 4.000000, 4.000000, 4.000000, 4.000000, 4.000000
51.000000, 0.000000, 4206.153809, 4218.461426, 4034.358887, 4114.358887, 4080.512695, 0.000000, 8222.000000, 8402.000000, 0.000000, 0.000000, 0.000000, 0.000000, 991.000000, 1557646140.575074, 4.000000, 4.000000, 4.000000, 4.000000, 4.000000
52.000000, 0.000000, 4286.666504, 4341.025391, 4110.256348, 4213.333008, 4150.769043, 0.000000, 8251.000000, 8399.000000, 0.000000, 0.000000, 0.000000, 0.000000, 999.000000, 1557646140.583074, 4.000000, 4.000000, 4.000000, 4.000000, 4.000000
53.000000, 0.000000, 4254.871582, 4326.666504, 4082.563965, 4141.538574, 4112.307617, 0.000000, 8296.000000, 8412.000000, 0.000000, 0.000000, 0.000000, 1.000000, 7.000000, 1557646140.591074, 4.000000, 4.000000, 4.000000, 4.000000, 4.000000
54.000000, 0.000000, 4199.487305, 4270.769043, 4025.640869, 4055.897217, 4069.743408, 0.000000, 8312.000000, 8427.000000, 0.000000, 0.000000, 0.000000, 1.000000, 14.900009, 1557646140.598974, 4.000000, 4.000000, 4.000000, 4.000000, 4.000000
55.000000, 0.000000, 4241.025391, 4296.410156, 4050.769043, 4120.000000, 4097.436035, 0.000000, 8338.000000, 8429.000000, 0.000000, 0.000000, 0.000000, 1.000000, 22.900009, 1557646140.606974, 4.000000, 4.000000, 4.000000, 4.000000, 4.000000
56.000000, 0.000000, 4303.589844, 4321.025391, 4096.922852, 4195.384277, 4124.615234, 0.000000, 8372.000000, 8414.000000, 0.000000, 0.000000, 0.000000, 1.000000, 30.900009, 1557646140.614974, 4.000000, 4.000000, 4.000000, 4.000000, 4.000000
57.000000, 0.000000, 4289.743652, 4312.307617, 4102.051270, 4140.512695, 4119.487305, 0.000000, 8384.000000, 8419.000000, 0.000000, 0.000000, 0.000000, 1.000000, 38.900009, 1557646140.622974, 4.000000, 4.000000, 4.000000, 4.000000, 4.000000
58.000000, 0.000000, 4255.897461, 4312.307617, 4093.845947, 4107.692383, 4113.333008, 0.000000, 8397.000000, 8406.000000, 0.000000, 0.000000, 0.000000, 1.000000, 46.800003, 1557646140.630874, 4.000000, 4.000000, 4.000000, 4.000000, 4.000000
59.000000, 0.000000, 4257.948730, 4286.153809, 4062.051270, 4156.922852, 4114.358887, 0.000000, 8408.000000, 8394.000000, 0.000000, 0.000000, 0.000000, 1.000000, 54.800003, 1557646140.638874, 4.000000, 4.000000, 4.000000, 4.000000, 4.000000
60.000000, 0.000000, 4255.384277, 4245.641113, 4010.256348, 4121.538574, 4105.641113, 0.000000, 8414.000000, 8368.000000, 0.000000, 0.000000, 0.000000, 1.000000, 62.800003, 1557646140.646874, 4.000000, 4.000000, 4.000000, 4.000000, 4.000000
61.000000, 0.000000, 4288.205078, 4330.769043, 4069.230713, 4082.563965, 4134.358887, 0.000000, 8412.000000, 8365.000000, 0.000000, 0.000000, 0.000000, 1.000000, 70.800003, 1557646140.654874, 4.000000, 4.000000, 4.000000, 4.000000, 4.000000
62.000000, 0.000000, 4354.871582, 4407.692383, 4147.179199, 4152.820313, 4170.256348, 0.000000, 8427.000000, 8343.000000, 0.000000, 0.000000, 0.000000, 1.000000, 78.800003, 1557646140.662874, 4.000000, 4.000000, 4.000000, 4.000000, 4.000000
63.000000, 0.000000, 4358.461426, 4303.589844, 4068.717773, 4146.666504, 4123.589844, 0.000000, 8435.000000, 8333.000000, 0.000000, 0.000000, 0.000000, 1.000000, 86.699997, 1557646140.670774, 4.000000, 4.000000, 4.000000, 4.000000, 4.000000
64.000000, 0.000000, 4340.512695, 4243.589844, 3983.589600, 4080.512695, 4075.897217, 500.000000, 8439.000000, 8312.000000, 0.000000, 0.000000, 0.000000, 1.000000, 94.699997, 1557646140.678774, 4.000000, 4.000000, 4.000000, 4.000000, 4.000000
65.000000, 0.000000, 4348.205078, 4279.487305, 3975.897217, 4052.820313, 4072.820313, 500.000000, 8441.000000, 8299.000000, 0.000000, 0.000000, 0.000000, 1.000000, 102.699997, 1557646140.686774, 4.000000, 4.000000, 4.000000, 4.000000, 4.000000
66.000000, 0.000000, 4355.897461, 4248.205078, 3951.794678, 4014.871582, 4058.461426, 16182.000000, 8449.000000, 8297.000000, 0.000000, 0.000000, 0.000000, 1.000000, 110.699997, 1557646140.694774, 4.000000, 4.000000, 4.000000, 4.000000, 4.000000
67.000000, 0.000000, 4402.051270, 4296.922852, 3968.717773, 4054.871582, 4075.897217, 500.000000, 8450.000000, 8297.000000, 0.000000, 0.000000, 0.000000, 1.000000, 118.400009, 1557646140.702474, 4.000000, 4.000000, 4.000000, 4.000000, 4.000000
68.000000, 0.000000, 4420.000000, 4402.563965, 3994.871582, 4082.051270, 4075.384521, 16144.000000, 8463.000000, 8286.000000, 0.000000, 0.000000, 0.000000, 1.000000, 126.199997, 1557646140.710274, 4.000000, 4.000000, 4.000000, 4.000000, 4.000000
69.000000, 0.000000, 4322.563965, 4308.205078, 3916.410156, 3979.487061, 3973.333252, 500.000000, 8471.000000, 8275.000000, 0.000000, 0.000000, 0.000000, 1.000000, 134.199997, 1557646140.718274, 4.000000, 4.000000, 4.000000, 4.000000, 4.000000
70.000000, 0.000000, 4292.820313, 4244.102539, 3904.615234, 3991.794678, 3953.845947, 16142.000000, 8475.000000, 8258.000000, 0.000000, 0.000000, 0.000000, 1.000000, 142.199997, 1557646140.726274, 4.000000, 4.000000, 4.000000, 4.000000, 4.000000
71.000000, 0.000000, 4358.461426, 4359.487305, 3981.025635, 4084.102539, 4026.153809, 500.000000, 8484.000000, 8261.000000, 0.000000, 0.000000, 0.000000, 1.000000, 150.099991, 1557646140.734174, 4.000000, 4.000000, 4.000000, 4.000000, 4.000000
72.000000, 0.000000, 4292.307617, 4349.743652, 3912.820313, 4002.051270, 3941.538330, 500.000000, 8494.000000, 8247.000000, 0.000000, 0.000000, 0.000000, 1.000000, 158.000015, 1557646140.742074, 4.000000, 4.000000, 4.000000, 4.000000, 4.000000
73.000000, 0.000000, 4147.179199, 4244.615234, 3792.307617, 3912.307617, 3791.794678, 16082.000000, 8493.000000, 8239.000000, 0.000000, 0.000000, 0.000000, 1.000000, 166.000015, 1557646140.750074, 4.000000, 4.000000, 4.000000, 4.000000, 4.000000
74.000000, 0.000000, 4120.000000, 4252.820313, 3803.589600, 3914.358887, 3782.563965, 500.000000, 8491.000000, 8244.000000, 0.000000, 0.000000, 0.000000, 1.000000, 174.000015, 1557646140.758074, 4.000000, 4.000000, 4.000000, 4.000000, 4.000000
75.000000, 0.000000, 4174.871582, 4316.922852, 3862.563965, 3943.076904, 3832.820313, 16164.000000, 8496.000000, 8239.000000, 0.000000, 0.000000, 0.000000, 1.000000, 182.000015, 1557646140.766074, 4.000000, 4.000000, 4.000000, 4.000000, 4.000000
76.000000, 0.000000, 4184.615234, 4346.666504, 3880.000000, 4054.871582, 3841.538330, 500.000000, 8492.000000, 8239.000000, 0.000000, 0.000000, 0.000000, 1.000000, 189.800003, 1557646140.773874, 4.000000, 4.000000, 4.000000, 4.000000, 4.000000
77.000000, 0.000000, 4116.922852, 4279.487305, 3828.205078, 4055.897217, 3792.307617, 500.000000, 8483.000000, 8251.000000, 0.000000, 0.000000, 0.000000, 1.000000, 197.500015, 1557646140.781574, 4.000000, 4.000000, 4.000000, 4.000000, 4.000000
78.000000, 0.000000, 4074.358887, 4203.076660, 3765.640869, 3893.333252, 3752.307617, 450.000000, 8486.000000, 8255.000000, 0.000000, 0.000000, 0.000000, 1.000000, 205.300003, 1557646140.789374, 4.000000, 4.000000, 4.000000, 4.000000, 4.000000
79.000000, 0.000000, 4144.615234, 4293.846191, 3815.384521, 3904.615234, 3811.794678, 16164.000000, 8474.000000, 8265.000000, 0.000000, 0.000000, 0.000000, 1.000000, 213.199997, 1557646140.797274, 4.000000, 4.000000, 4.000000, 4.000000, 4.000000
80.000000, 0.000000, 4161.538574, 4343.589844, 3835.897461, 4020.512695, 3824.102539, 450.000000, 8465.000000, 8275.000000, 0.000000, 0.000000, 0.000000, 1.000000, 221.199997, 1557646140.805274, 4.000000, 4.000000, 4.000000, 4.000000, 4.000000
81.000000, 0.000000, 4060.512695, 4211.794922, 3718.974365, 3942.563965, 3720.000000, 450.000000, 8458.000000, 8275.000000, 0.000000, 0.000000, 0.000000, 1.000000, 229.099991, 1557646140.813174, 4.000000, 4.000000, 4.000000, 4.000000, 4.000000
82.000000, 0.000000, 4063.589600, 4208.205078, 3692.307617, 3871.281982, 3728.205078, 450.000000, 8467.000000, 8263.000000, 0.000000, 0.000000, 0.000000, 1.000000, 237.099991, 1557646140.821174, 4.000000, 4.000000, 4.000000, 4.000000, 4.000000
83.000000, 0.000000, 4179.487305, 4362.563965, 3810.769043, 4002.051270, 3855.384521, 16164.000000, 8460.000000, 8264.000000, 0.000000, 0.000000, 0.000000, 1.000000, 244.900009, 1557646140.828974, 4.000000, 4.000000, 4.000000, 4.000000, 4.000000
84.000000, 0.000000, 4177.948730, 4352.820313, 3825.640869, 4054.358887, 3856.410156, 450.000000, 8457.000000, 8280.000000, 0.000000, 0.000000, 0.000000, 1.000000, 252.699997, 1557646140.836774, 4.000000, 4.000000, 4.000000, 4.000000, 4.000000
85.000000, 0.000000, 4089.230713, 4240.000000, 3747.179443, 3905.128174, 3768.205078, 450.000000, 8455.000000, 8288.000000, 0.000000, 0.000000, 0.000000, 1.000000, 260.500015, 1557646140.844574, 4.000000, 4.000000, 4.000000, 4.000000, 4.000000
86.000000, 0.000000, 4077.948730, 4230.256348, 3752.820313, 3842.051270, 3761.538330, 450.000000, 8456.000000, 8277.000000, 0.000000, 0.000000, 0.000000, 1.000000, 268.199997, 1557646140.852274, 4.000000, 4.000000, 4.000000, 4.000000, 4.000000
87.000000, 0.000000, 4096.922852, 4257.948730, 3774.871582, 3952.307617, 3781.538330, 16164.000000, 8450.000000, 8291.000000, 0.000000, 0.000000, 0.000000, 1.000000, 276.199997, 1557646140.860274, 4.000000, 4.000000, 4.000000, 4.000000, 4.000000
88.000000, 0.000000, 4084.615234, 4262.563965, 3747.179443, 3984.102539, 3768.205078, 450.000000, 8447.000000, 8295.000000, 0.000000, 0.000000, 0.000000, 1.000000, 284.099991, 1557646140.868174, 4.000000, 4.000000, 4.000000, 4.000000, 4.000000
89.000000, 0.000000, 4083.589600, 4265.127930, 3749.743408, 3932.307617, 3773.333252, 450.000000, 8443.000000, 8291.000000, 0.000000, 0.000000, 0.000000, 1.000000, 292.099991, 1557646140.876174, 4.000000, 4.000000, 4.000000, 4.000000, 4.000000
90.000000, 0.000000, 4074.358887, 4239.487305, 3755.384521, 3941.025635, 3764.615234, 450.000000, 8456.000000, 8296.000000, 0.000000, 0.000000, 0.000000, 1.000000, 300.099991, 1557646140.884174, 4.000000, 4.000000, 4.000000, 4.000000, 4.000000
91.000000, 0.000000, 4079.487061, 4244.102539, 3749.230713, 3942.563965, 3752.307617, 16164.000000, 8457.000000, 8284.000000, 0.000000, 0.000000, 0.000000, 1.000000, 308.000015, 1557646140.892074, 4.000000, 4.000000, 4.000000, 4.000000, 4.000000
92.000000, 0.000000, 4156.922852, 4327.179199, 3818.461426, 3946.666504, 3833.333252, 450.000000, 8452.000000, 8262.000000, 0.000000, 0.000000, 0.000000, 1.000000, 316.000015, 1557646140.900074, 4.000000, 4.000000, 4.000000, 4.000000, 4.000000
93.000000, 0.000000, 4154.358887, 4289.230469, 3831.281982, 3955.897461, 3862.563965, 450.000000, 8455.000000, 8263.000000, 0.000000, 0.000000, 0.000000, 1.000000, 323.800003, 1557646140.907874, 4.000000, 4.000000, 4.000000, 4.000000, 4.000000
94.000000, 0.000000, 4081.538330, 4203.589844, 3751.281982, 3945.128174, 3790.256348, 450.000000, 8450.000000, 8276.000000, 0.000000, 0.000000, 0.000000, 1.000000, 331.599991, 1557646140.915674, 4.000000, 4.000000, 4.000000, 4.000000, 4.000000
95.000000, 0.000000, 4109.230469, 4265.641113, 3763.076904, 3945.128174, 3803.589600, 16164.000000, 8454.000000, 8274.000000, 0.000000, 0.000000, 0.000000, 1.000000, 339.300003, 1557646140.923374, 4.000000, 4.000000, 4.000000, 4.000000, 4.000000
96.000000, 0.000000, 4127.692383, 4283.589844, 3794.358887, 3887.692139, 3829.230713, 450.000000, 8445.000000, 8305.000000, 0.000000, 0.000000, 0.000000, 1.000000, 347.200027, 1557646140.931274, 4.000000, 4.000000, 4.000000, 4.000000, 4.000000
97.000000, 0.000000, 4093.845947, 4235.897461, 3773.333252, 3862.563965, 3790.769043, 450.000000, 8438.000000, 8330.000000, 0.000000, 0.000000, 0.000000, 1.000000, 355.200027, 1557646140.939274, 4.000000, 4.000000, 4.000000, 4.000000, 4.000000
98.000000, 0.000000, 4129.230469, 4279.487305, 3800.512695, 3984.615234, 3826.666504, 450.000000, 8430.000000, 8366.000000, 0.000000, 0.000000, 0.000000, 1.000000, 363.200027, 1557646140.947274, 4.000000, 4.000000, 4.000000, 4.000000, 4.000000
99.000000, 0.000000, 4146.153809, 4288.205078, 3813.333252, 4003.589600, 3868.717773, 16164.000000, 8424.000000, 8377.000000, 0.000000, 0.000000, 0.000000, 1.000000, 371.200027, 1557646140.955274, 4.000000, 4.000000, 4.000000, 4.000000, 4.000000
100.000000, 0.000000, 4074.871582, 4214.358887, 3749.230713, 3866.666504, 3803.589600, 450.000000, 8415.000000, 8416.000000, 0.000000, 0.000000, 0.000000, 1.000000, 378.899979, 1557646140.962974, 4.000000, 4.000000, 4.000000, 4.000000, 4.000000
101.000000, 0.000000, 4085.640869, 4233.333008, 3755.384521, 3884.615234, 3804.102539, 450.000000, 8403.000000, 8438.000000, 0.000000, 0.000000, 0.000000, 1.000000, 386.700027, 1557646140.970774, 4.000000, 4.000000, 4.000000, 4.000000, 4.000000
102.000000, 0.000000, 4183.589844, 4317.436035, 3837.435791, 4035.897217, 3917.948730, 450.000000, 8397.000000, 8439.000000, 0.000000, 0.000000, 0.000000, 1.000000, 394.500015, 1557646140.978574, 4.000000, 4.000000, 4.000000, 4.000000, 4.000000
103.000000, 0.000000, 4201.538574, 4342.563965, 3850.769043, 4055.897217, 3952.820313, 16164.000000, 8374.000000, 8472.000000, 0.000000, 0.000000, 0.000000, 1.000000, 402.300003, 1557646140.986374, 4.000000, 4.000000, 4.000000, 4.000000, 4.000000
104.000000, 0.000000, 4145.127930, 4306.153809, 3795.384521, 3967.179443, 3882.563965, 450.000000, 8363.000000, 8478.000000, 0.000000, 0.000000, 0.000000, 1.000000, 410.099991, 1557646140.994174, 4.000000, 4.000000, 4.000000, 4.000000, 4.000000
105.000000, 0.000000, 4122.051270, 4255.384277, 3770.769043, 3909.230713, 3860.000000, 450.000000, 8333.000000, 8500.000000, 0.000000, 0.000000, 0.000000, 1.000000, 418.000015, 1557646141.002074, 4.000000, 4.000000, 4.000000, 4.000000, 4.000000
106.000000, 0.000000, 4161.538574, 4268.205078, 3805.128174, 3937.435791, 3912.820313, 450.000000, 8313.000000, 8514.000000, 0.000000, 0.000000, 0.000000, 1.000000, 426.000015, 1557646141.010074, 4.000000, 4.000000, 4.000000, 4.000000, 4.000000
107.000000, 0.000000, 4155.897461, 4294.871582, 3799.487061, 3958.461426, 3895.897461, 16164.000000, 8282.000000, 8508.000000, 0.000000, 0.000000, 0.000000, 1.000000, 434.000015, 1557646141.018074, 4.000000, 4.000000, 4.000000, 4.000000, 4.000000
108.000000, 0.000000, 4092.820313, 4266.153809, 3744.615234, 3895.897461, 3829.743408, 450.000000, 8270.000000, 8499.000000, 0.000000, 0.000000, 0.000000, 1.000000, 441.800003, 1557646141.025874, 4.000000, 4.000000, 4.000000, 4.000000, 4.000000
109.000000, 0.000000, 4127.179199, 4281.025391, 3754.358887, 3942.563965, 3888.717773, 450.000000, 8239.000000, 8511.000000, 0.000000, 0.000000, 0.000000, 1.000000, 449.500015, 1557646141.033574, 4.000000, 4.000000, 4.000000, 4.000000, 4.000000
110.000000, 0.000000, 4204.102539, 4292.307617, 3774.871582, 4067.179443, 3963.589600, 450.000000, 8221.000000, 8530.000000, 0.000000, 0.000000, 0.000000, 1.000000, 457.300003, 1557646141.041374, 4.000000, 4.000000, 4.000000, 4.000000, 4.000000
111.000000, 0.000000, 4220.512695, 4269.743652, 3766.153809, 4034.358887, 3957.948730, 16164.000000, 8191.000000, 8545.000000, 0.000000, 0.000000, 0.000000, 1.000000, 465.200027, 1557646141.049274, 4.000000, 4.000000, 4.000000, 4.000000, 4.000000
112.000000, 0.000000, 4232.307617, 4290.769043, 3782.563965, 3936.410156, 3980.000000, 450.000000, 8185.000000, 8543.000000, 0.000000, 0.000000, 0.000000, 1.000000, 473.099991, 1557646141.057174, 4.000000, 4.000000, 4.000000, 4.000000, 4.000000
113.000000, 0.000000, 4247.179199, 4313.333008, 3796.410156, 3982.051270, 4008.205078, 450.000000, 8160.000000, 8553.000000, 0.000000, 0.000000, 0.000000, 1.000000, 481.099991, 1557646141.065174, 4.000000, 4.000000, 4.000000, 4.000000, 4.000000
114.000000, 0.000000, 4232.307617, 4297.948730, 3767.692139, 4081.538330, 3982.051270, 450.000000, 8148.000000, 8570.000000, 0.000000, 0.000000, 0.000000, 1.000000, 489.000015, 1557646141.073074, 4.000000, 4.000000, 4.000000, 4.000000, 4.000000
115.000000, 0.000000, 4209.230469, 4273.846191, 3728.205078, 4040.000000, 3963.589600, 16164.000000, 8070.000000, 8569.000000, 0.000000, 0.000000, 0.000000, 1.000000, 497.000015, 1557646141.081074, 4.000000, 4.000000, 4.000000, 4.000000, 4.000000
116.000000, 0.000000, 4236.410156, 4307.179199, 3755.897461, 3993.333252, 4010.769043, 450.000000, 8118.000000, 8564.000000, 0.000000, 0.000000, 0.000000, 1.000000, 505.000015, 1557646141.089074, 4.000000, 4.000000, 4.000000, 4.000000, 4.000000
117.000000, 0.000000, 4307.179199, 4398.461426, 3832.307617, 4097.436035, 4084.615234, 450.000000, 8115.000000, 8565.000000, 0.000000, 0.000000, 0.000000, 1.000000, 512.800003, 1557646141.096874, 4.000000, 4.000000, 4.000000, 4.000000, 4.000000
118.000000, 0.000000, 4276.922852, 4361.025391, 3801.538330, 4129.230469, 4048.717773, 450.000000, 8107.000000, 8546.000000, 0.000000, 0.000000, 0.000000, 1.000000, 520.500015, 1557646141.104574, 4.000000, 4.000000, 4.000000, 4.000000, 4.000000
119.000000, 0.000000, 4189.230469, 4245.127930, 3716.923096, 4002.051270, 3963.589600, 16164.000000, 8097.000000, 8539.000000, 0.000000, 0.000000, 0.000000, 1.000000, 528.300003, 1557646141.112374, 4.000000, 4.000000, 4.000000, 4.000000, 4.000000
120.000000, 0.000000, 4252.307617, 4307.179199, 3771.794678, 4008.205078, 4034.358887, 450.000000, 8093.000000, 8530.000000, 0.000000, 0.000000, 0.000000, 1.000000, 536.099991, 1557646141.120174, 4.000000, 4.000000, 4.000000, 4.000000, 4.000000
121.000000, 0.000000, 4326.666504, 4395.384277, 3829.743408, 4140.512695, 4112.820313, 450.000000, 8096.000000, 8527.000000, 0.000000, 0.000000, 0.000000, 1.000000, 544.099991, 1557646141.128174, 4.000000, 4.000000, 4.000000, 4.000000, 4.000000
122.000000, 0.000000, 4263.076660, 4335.897461, 3778.974365, 4152.820313, 4045.640869, 450.000000, 8102.000000, 8511.000000, 0.000000, 0.000000, 0.000000, 1.000000, 552.099991, 1557646141.136174, 4.000000, 4.000000, 4.000000, 4.000000, 4.000000
123.000000, 0.000000, 4254.871582, 4323.076660, 3785.640869, 4071.281982, 4038.974365, 16164.000000, 8096.000000, 8508.000000, 0.000000, 0.000000, 0.000000, 1.000000, 560.000015, 1557646141.144074, 4.000000, 4.000000, 4.000000, 4.000000, 4.000000
124.000000, 0.000000, 4276.410156, 4329.230469, 3793.845947, 4025.640869, 4074.358887, 450.000000, 8110.000000, 8481.000000, 0.000000, 0.000000, 0.000000, 1.000000, 568.000015, 1557646141.152074, 4.000000, 4.000000, 4.000000, 4.000000, 4.000000
125.000000, 0.000000, 4236.922852, 4290.256348, 3753.845947, 4056.923096, 4045.640869, 450.000000, 8117.000000, 8460.000000, 0.000000, 0.000000, 0.000000, 1.000000, 576.000015, 1557646141.160074, 4.000000, 4.000000, 4.000000, 4.000000, 4.000000
126.000000, 0.000000, 4261.538574, 4338.974121, 3793.333252, 4098.974121, 4076.923096, 450.000000, 8132.000000, 8451.000000, 0.000000, 0.000000, 0.000000, 1.000000, 583.800003, 1557646141.167874, 4.000000, 4.000000, 4.000000, 4.000000, 4.000000
127.000000, 0.000000, 4287.179199, 4355.384277, 3808.205078, 4051.794678, 4108.205078, 16164.000000, 8132.000000, 8457.000000, 0.000000, 0.000000, 0.000000, 1.000000, 591.599991, 1557646141.175674, 4.000000, 4.000000, 4.000000, 4.000000, 4.000000
128.000000, 0.000000, 4223.589844, 4244.615234, 3737.948730, 3993.845947, 4037.948730, 500.000000, 8142.000000, 8456.000000, 0.000000, 0.000000, 0.000000, 1.000000, 599.300003, 1557646141.183374, 4.000000, 4.000000, 4.000000, 4.000000, 4.000000
0.000000, 0.000000, 4249.743652, 4280.000000, 3796.923096, 4073.845947, 4063.589600, 500.000000, 8148.000000, 8442.000000, 0.000000, 0.000000, 0.000000, 1.000000, 607.099991, 1557646141.191174, 4.000000, 4.000000, 4.000000, 4.000000, 4.000000
1.000000, 0.000000, 4359.487305, 4437.435547, 3923.076904, 4192.820313, 4181.538574, 500.000000, 8168.000000, 8430.000000, 0.000000, 0.000000, 0.000000, 1.000000, 615.099991, 1557646141.199174, 4.000000, 4.000000, 4.000000, 4.000000, 4.000000
2.000000, 0.000000, 4354.871582, 4411.281738, 3888.205078, 4171.794922, 4164.615234, 16184.000000, 8174.000000, 8426.000000, 0.000000, 0.000000, 0.000000, 1.000000, 623.099991, 1557646141.207174, 4.000000, 4.000000, 4.000000, 4.000000, 4.000000
3.000000, 0.000000, 4284.102539, 4264.102539, 3787.692139, 4095.384521, 4067.692139, 500.000000, 8176.000000, 8424.000000, 0.000000, 0.000000, 0.000000, 1.000000, 631.000015, 1557646141.215074, 4.000000, 4.000000, 4.000000, 4.000000, 4.000000
4.000000, 0.000000, 4313.333008, 4290.256348, 3820.512695, 4077.948730, 4098.461426, 16150.000000, 8190.000000, 8409.000000, 0.000000, 0.000000, 0.000000, 1.000000, 638.800003, 1557646141.222874, 4.000000, 4.000000, 4.000000, 4.000000, 4.000000
5.000000, 0.000000, 4357.948730, 4377.435547, 3879.487061, 4081.025635, 4163.589844, 500.000000, 8206.000000, 8403.000000, 0.000000, 0.000000, 0.000000, 1.000000, 646.599991, 1557646141.230674, 4.000000, 4.000000, 4.000000, 4.000000, 4.000000
6.000000, 0.000000, 4342.051270, 4328.717773, 3854.358887, 4127.179199, 4135.897461, 16180.000000, 8208.000000, 8396.000000, 0.000000, 0.000000, 0.000000, 1.000000, 654.399979, 1557646141.238474, 4.000000, 4.000000, 4.000000, 4.000000, 4.000000
7.000000, 0.000000, 4374.358887, 4320.000000, 3861.538330, 4194.871582, 4147.179199, 500.000000, 8208.000000, 8394.000000, 0.000000, 0.000000, 0.000000, 1.000000, 662.300003, 1557646141.246374, 4.000000, 4.000000, 4.000000, 4.000000, 4.000000
8.000000, 0.000000, 4397.435547, 4339.487305, 3868.205078, 4131.794922, 4173.333008, 500.000000, 8201.000000, 8384.000000, 0.000000, 0.000000, 0.000000, 1.000000, 670.099991, 1557646141.254174, 4.000000, 4.000000, 4.000000, 4.000000, 4.000000
9.000000, 0.000000, 4415.897461, 4333.846191, 3877.948730, 4105.127930, 4177.436035, 16103.000000, 8203.000000, 8363.000000, 0.000000, 0.000000, 0.000000, 1.000000, 678.099991, 1557646141.262174, 4.000000, 4.000000, 4.000000, 4.000000, 4.000000
10.000000, 0.000000, 4487.179199, 4369.743652, 3941.538330, 4167.179199, 4213.846191, 500.000000, 8196.000000, 8367.000000, 0.000000, 0.000000, 0.000000, 1.000000, 686.099991, 1557646141.270174, 4.000000, 4.000000, 4.000000, 4.000000, 4.000000
11.000000, 0.000000, 4468.717773, 4327.179199, 3926.153809, 4098.974121, 4200.512695, 16177.000000, 8194.000000, 8383.000000, 0.000000, 0.000000, 0.000000, 1.000000, 694.099991, 1557646141.278174, 4.000000, 4.000000, 4.000000, 4.000000, 4.000000
12.000000, 0.000000, 4461.025391, 4297.948730, 3908.717773, 4124.102539, 4202.051270, 500.000000, 8188.000000, 8388.000000, 0.000000, 0.000000, 0.000000, 1.000000, 702.099991, 1557646141.286174, 4.000000, 4.000000, 4.000000, 4.000000, 4.000000
13.000000, 0.000000, 4578.461426, 4426.666504, 4005.128174, 4278.974121, 4295.897461, 500.000000, 8181.000000, 8386.000000, 0.000000, 0.000000, 0.000000, 1.000000, 709.800003, 1557646141.293874, 4.000000, 4.000000, 4.000000, 4.000000, 4.000000
14.000000, 0.000000, 4542.563965, 4402.051270, 3976.923096, 4151.794922, 4255.897461, 450.000000, 8171.000000, 8398.000000, 0.000000, 0.000000, 0.000000, 1.000000, 717.599991, 1557646141.301674, 4.000000, 4.000000, 4.000000, 4.000000, 4.000000
15.000000, 0.000000, 4388.717773, 4203.589844, 3840.000000, 3994.871582, 4114.358887, 16177.000000, 8164.000000, 8413.000000, 0.000000, 0.000000, 0.000000, 1.000000, 725.399979, 1557646141.309474, 4.000000, 4.000000, 4.000000, 4.000000, 4.000000
16.000000, 0.000000, 4425.641113, 4228.717773, 3885.640869, 4106.153809, 4145.641113, 0.000000, 8160.000000, 8424.000000, 0.000000, 0.000000, 0.000000, 1.000000, 733.200027, 1557646141.317274, 4.000000, 4.000000, 4.000000, 4.000000, 4.000000
17.000000, 0.000000, 4513.333008, 4383.076660, 3988.205078, 4176.410156, 4224.102539, 0.000000, 8154.000000, 8430.000000, 0.000000, 0.000000, 0.000000, 1.000000, 741.099991, 1557646141.325174, 4.000000, 4.000000, 4.000000, 4.000000, 4.000000
18.000000, 0.000000, 4482.563965, 4375.384277, 3970.769043, 4149.743652, 4190.256348, 0.000000, 8147.000000, 8433.000000, 0.000000, 0.000000, 0.000000, 1.000000, 749.099991, 1557646141.333174, 4.000000, 4.000000, 4.000000, 4.000000, 4.000000
19.000000, 0.000000, 4413.846191, 4265.127930, 3916.923096, 4105.127930, 4129.743652, 0.000000, 8144.000000, 8422.000000, 0.000000, 0.000000, 0.000000, 1.000000, 757.099991, 1557646141.341174, 4.000000, 4.000000, 4.000000, 4.000000, 4.000000
20.000000, 0.000000, 4417.435547, 4276.922852, 3934.871582, 4063.589600, 4144.102539, 0.000000, 8139.000000, 8425.000000, 0.000000, 0.000000, 0.000000, 1.000000, 765.099991, 1557646141.349174, 4.000000, 4.000000, 4.000000, 4.000000, 4.000000
21.000000, 0.000000, 4497.435547, 4395.384277, 4008.717773, 4177.436035, 4214.871582, 0.000000, 8133.000000, 8402.000000, 0.000000, 0.000000, 0.000000, 1.000000, 772.899979, 1557646141.356974, 4.000000, 4.000000, 4.000000, 4.000000, 4.000000
22.000000, 0.000000, 4474.358887, 4364.102539, 3982.051270, 4209.743652, 4178.461426, 0.000000, 8128.000000, 8367.000000, 0.000000, 0.000000, 0.000000, 1.000000, 780.599991, 1557646141.364674, 4.000000, 4.000000, 4.000000, 4.000000, 4.000000
23.000000, 0.000000, 4385.641113, 4247.179199, 3895.897461, 4051.794678, 4092.307617, 0.000000, 8128.000000, 8338.000000, 0.000000, 0.000000, 0.000000, 1.000000, 788.399979, 1557646141.372474, 4.000000, 4.000000, 4.000000, 4.000000, 4.000000
24.000000, 0.000000, 4408.205078, 4257.436035, 3909.230713, 4078.461426, 4114.871582, 0.000000, 8125.000000, 8329.000000, 0.000000, 0.000000, 0.000000, 1.000000, 796.200027, 1557646141.380274, 4.000000, 4.000000, 4.000000, 4.000000, 4.000000
25.000000, 0.000000, 4446.153809, 4310.256348, 3964.102539, 4184.102539, 4149.230469, 0.000000, 8134.000000, 8295.000000, 0.000000, 0.000000, 0.000000, 1.000000, 804.200027, 1557646141.388274, 4.000000, 4.000000, 4.000000, 4.000000, 4.000000
26.000000, 0.000000, 4448.205078, 4335.897461, 4000.000000, 4125.641113, 4162.563965, 0.000000, 8137.000000, 8275.000000, 0.000000, 0.000000, 0.000000, 1.000000, 812.200027, 1557646141.396274, 4.000000, 4.000000, 4.000000, 4.000000, 4.000000
27.000000, 0.000000, 4450.256348, 4326.153809, 4006.666504, 4093.845947, 4174.358887, 0.000000, 8137.000000, 8253.000000, 0.000000, 0.000000, 0.000000, 1.000000, 820.099991, 1557646141.404174, 4.000000, 4.000000, 4.000000, 4.000000, 4.000000
28.000000, 0.000000, 4376.410156, 4224.615234, 3940.000000, 4085.128174, 4093.845947, 0.000000, 8138.000000, 8256.000000, 0.000000, 0.000000, 0.000000, 1.000000, 828.099991, 1557646141.412174, 4.000000, 4.000000, 4.000000, 4.000000, 4.000000
29.000000, 0.000000, 4362.563965, 4231.794922, 3953.333252, 4088.205078, 4073.845947, 0.000000, 8140.000000, 8247.000000, 0.000000, 0.000000, 0.000000, 1.000000, 836.100003, 1557646141.420174, 4.000000, 4.000000, 4.000000, 4.000000, 4.000000
30.000000, 0.000000, 4437.948730, 4329.743652, 4034.871582, 4136.410156, 4158.974121, 0.000000, 8139.000000, 8244.000000, 0.000000, 0.000000, 0.000000, 1.000000, 843.900003, 1557646141.427974, 4.000000, 4.000000, 4.000000, 4.000000, 4.000000
31.000000, 0.000000, 4403.076660, 4276.410156, 3989.743408, 4115.384277, 4127.179199, 0.000000, 8141.000000, 8241.000000, 0.000000, 0.000000, 0.000000, 1.000000, 851.600002, 1557646141.435674, 4.000000, 4.000000, 4.000000, 4.000000, 4.000000
32.000000, 0.000000, 4349.230469, 4216.410156, 3937.948730, 4065.128174, 4063.589600, 0.000000, 8137.000000, 8233.000000, 0.000000, 0.000000, 0.000000, 1.000000, 859.400003, 1557646141.443474, 4.000000, 4.000000, 4.000000, 4.000000, 4.000000
33.000000, 0.000000, 4379.487305, 4254.871582, 3981.025635, 4063.076904, 4097.436035, 0.000000, 8140.000000, 8246.000000, 0.000000, 0.000000, 0.000000, 1.000000, 867.200005, 1557646141.451274, 4.000000, 4.000000, 4.000000, 4.000000, 4.000000
34.000000, 0.000000, 4404.102539, 4274.358887, 4022.051270, 4075.897217, 4132.820313, 0.000000, 8129.000000, 8245.000000, 0.000000, 0.000000, 0.000000, 1.000000, 875.200005, 1557646141.459274, 4.000000, 4.000000, 4.000000, 4.000000, 4.000000
35.000000, 0.000000, 4405.641113, 4263.589844, 4033.333252, 4107.692383, 4130.769043, 0.000000, 8131.000000, 8234.000000, 0.000000, 0.000000, 0.000000, 1.000000, 883.200005, 1557646141.467274, 4.000000, 4.000000, 4.000000, 4.000000, 4.000000
36.000000, 0.000000, 4376.922852, 4234.358887, 4024.615234, 4134.871582, 4096.922852, 0.000000, 8132.000000, 8231.000000, 0.000000, 0.000000, 0.000000, 1.000000, 891.100002, 1557646141.475174, 4.000000, 4.000000, 4.000000, 4.000000, 4.000000
37.000000, 0.000000, 4328.717773, 4201.538574, 4000.512695, 4060.512695, 4055.384521, 0.000000, 8131.000000, 8239.000000, 0.000000, 0.000000, 0.000000, 1.000000, 899.100006, 1557646141.483174, 4.000000, 4.000000, 4.000000, 4.000000, 4.000000
38.000000, 0.000000, 4352.307617, 4241.025391, 4014.358887, 4035.897217, 4077.435791, 0.000000, 8119.000000, 8234.000000, 0.000000, 0.000000, 0.000000, 1.000000, 906.900002, 1557646141.490974, 4.000000, 4.000000, 4.000000, 4.000000, 4.000000
39.000000, 0.000000, 4393.333008, 4285.127930, 4049.743408, 4145.127930, 4113.333008, 0.000000, 8126.000000, 8225.000000, 0.000000, 0.000000, 0.000000, 1.000000, 914.700005, 1557646141.498774, 4.000000, 4.000000, 4.000000, 4.000000, 4.000000
40.000000, 0.000000, 4352.307617, 4228.717773, 4031.794678, 4139.487305, 4078.974365, 0.000000, 8115.000000, 8230.000000, 0.000000, 0.000000, 0.000000, 1.000000, 922.400002, 1557646141.506474, 4.000000, 4.000000, 4.000000, 4.000000, 4.000000
41.000000, 0.000000, 4344.102539, 4203.076660, 4018.974365, 4054.358887, 4057.435791, 0.000000, 8119.000000, 8240.000000, 0.000000, 0.000000, 0.000000, 1.000000, 930.200005, 1557646141.514274, 4.000000, 4.000000, 4.000000, 4.000000, 4.000000
42.000000, 0.000000, 4376.922852, 4243.076660, 4038.461426, 4076.410156, 4069.230713, 0.000000, 8114.000000, 8235.000000, 0.000000, 0.000000, 0.000000, 1.000000, 938.100006, 1557646141.522174, 4.000000, 4.000000, 4.000000, 4.000000, 4.000000
43.000000, 0.000000, 4336.410156, 4224.102539, 4024.615234, 4101.025391, 4043.076904, 0.000000, 8117.000000, 8233.000000, 0.000000, 0.000000, 0.000000, 1.000000, 946.100006, 1557646141.530174, 4.000000, 4.000000, 4.000000, 4.000000, 4.000000
44.000000, 0.000000, 4314.871582, 4212.820313, 4018.461426, 4046.153809, 4038.974365, 0.000000, 8129.000000, 8231.000000, 0.000000, 0.000000, 0.000000, 1.000000, 954.100006, 1557646141.538174, 4.000000, 4.000000, 4.000000, 4.000000, 4.000000
45.000000, 0.000000, 4384.615234, 4267.692383, 4061.025635, 4085.640869, 4095.384521, 0.000000, 8131.000000, 8226.000000, 0.000000, 0.000000, 0.000000, 1.000000, 962.000000, 1557646141.546074, 4.000000, 4.000000, 4.000000, 4.000000, 4.000000
46.000000, 0.000000, 4392.307617, 4247.179199, 4063.076904, 4150.256348, 4088.205078, 0.000000, 8142.000000, 8209.000000, 0.000000, 0.000000, 0.000000, 1.000000, 969.800003, 1557646141.553874, 4.000000, 4.000000, 4.000000, 4.000000, 4.000000
47.000000, 0.000000, 4313.846191, 4168.717773, 4008.205078, 4073.333252, 4010.769043, 0.000000, 8150.000000, 8212.000000, 0.000000, 0.000000, 0.000000, 1.000000, 977.600006, 1557646141.561674, 4.000000, 4.000000, 4.000000, 4.000000, 4.000000
48.000000, 0.000000, 4297.436035, 4182.563965, 3992.820313, 4040.000000, 4000.000000, 0.000000, 8158.000000, 8207.000000, 0.000000, 0.000000, 0.000000, 1.000000, 985.400009, 1557646141.569474, 4.000000, 4.000000, 4.000000, 4.000000, 4.000000
49.000000, 0.000000, 4322.563965, 4222.051270, 4013.845947, 4082.051270, 4025.640869, 0.000000, 8167.000000, 8190.000000, 0.000000, 0.000000, 0.000000, 1.000000, 993.300003, 1557646141.577374, 4.000000, 4.000000, 4.000000, 4.000000, 4.000000
50.000000, 0.000000, 4339.487305, 4223.589844, 4049.743408, 4083.076904, 4031.794678, 0.000000, 8174.000000, 8199.000000, 0.000000, 0.000000, 0.000000, 2.000000, 1.199997, 1557646141.585274, 4.000000, 4.000000, 4.000000, 4.000000, 4.000000
51.000000, 0.000000, 4368.205078, 4241.025391, 4088.205078, 4088.205078, 4059.487061, 0.000000, 8176.000000, 8204.000000, 0.000000, 0.000000, 0.000000, 2.000000, 9.199997, 1557646141.593274, 4.000000, 4.000000, 4.000000, 4.000000, 4.000000
52.000000, 0.000000, 4311.794922, 4181.538574, 4019.487061, 4081.538330, 4015.384521, 0.000000, 8178.000000, 8210.000000, 0.000000, 0.000000, 0.000000, 2.000000, 17.199997, 1557646141.601274, 4.000000, 4.000000, 4.000000, 4.000000, 4.000000
53.000000, 0.000000, 4232.820313, 4098.974121, 3937.948730, 4047.692139, 3937.435791, 0.000000, 8178.000000, 8195.000000, 0.000000, 0.000000, 0.000000, 2.000000, 25.199997, 1557646141.609274, 4.000000, 4.000000, 4.000000, 4.000000, 4.000000
54.000000, 0.000000, 4299.487305, 4181.025391, 4016.410156, 4080.000000, 4004.102539, 0.000000, 8179.000000, 8203.000000, 0.000000, 0.000000, 0.000000, 2.000000, 33.100006, 1557646141.617174, 4.000000, 4.000000, 4.000000, 4.000000, 4.000000
55.000000, 0.000000, 4346.666504, 4242.563965, 4069.230713, 4130.256348, 4057.948730, 0.000000, 8177.000000, 8189.000000, 0.000000, 0.000000, 0.000000, 2.000000, 40.900009, 1557646141.624974, 4.000000, 4.000000, 4.000000, 4.000000, 4.000000
56.000000, 0.000000, 4302.563965, 4175.384277, 4008.205078, 4106.153809, 3993.333252, 0.000000, 8176.000000, 8184.000000, 0.000000, 0.000000, 0.000000, 2.000000, 48.699997, 1557646141.632774, 4.000000, 4.000000, 4.000000, 4.000000, 4.000000
57.000000, 0.000000, 4314.871582, 4173.846191, 4002.563965, 4068.717773, 3982.051270, 0.000000, 8164.000000, 8189.000000, 0.000000, 0.000000, 0.000000, 2.000000, 56.500000, 1557646141.640574, 4.000000, 4.000000, 4.000000, 4.000000, 4.000000
58.000000, 0.000000, 4332.820313, 4218.461426, 4035.384521, 4069.743408, 4015.897217, 0.000000, 8161.000000, 8193.000000, 0.000000, 0.000000, 0.000000, 2.000000, 64.500000, 1557646141.648574, 4.000000, 4.000000, 4.000000, 4.000000, 4.000000
59.000000, 0.000000, 4310.769043, 4185.127930, 4013.845947, 4089.230713, 4002.563965, 0.000000, 8161.000000, 8195.000000, 0.000000, 0.000000, 0.000000, 2.000000, 72.199997, 1557646141.656274, 4.000000, 4.000000, 4.000000, 4.000000, 4.000000
60.000000, 0.000000, 4339.487305, 4174.871582, 3994.358887, 4103.076660, 4002.563965, 0.000000, 8157.000000, 8208.000000, 0.000000, 0.000000, 0.000000, 2.000000, 80.199997, 1557646141.664274, 4.000000, 4.000000, 4.000000, 4.000000, 4.000000
61.000000, 0.000000, 4339.487305, 4204.102539, 3982.051270, 4099.487305, 3995.384521, 0.000000, 8153.000000, 8217.000000, 0.000000, 0.000000, 0.000000, 2.000000, 88.199997, 1557646141.672274, 4.000000, 4.000000, 4.000000, 4.000000, 4.000000
62.000000, 0.000000, 4255.384277, 4163.589844, 3940.512695, 4094.358887, 3940.000000, 0.000000, 8157.000000, 8214.000000, 0.000000, 0.000000, 0.000000, 2.000000, 96.199997, 1557646141.680274, 4.000000, 4.000000, 4.000000, 4.000000, 4.000000
63.000000, 0.000000, 4288.205078, 4169.743652, 3961.025635, 4114.871582, 3969.743408, 0.000000, 8154.000000, 8225.000000, 0.000000, 0.000000, 0.000000, 2.000000, 104.000015, 1557646141.688074, 4.000000, 4.000000, 4.000000, 4.000000, 4.000000
64.000000, 0.000000, 4401.025391, 4237.436035, 4007.179443, 4134.871582, 4042.563965, 500.000000, 8149.000000, 8238.000000, 0.000000, 0.000000, 0.000000, 2.000000, 111.699997, 1557646141.695774, 4.000000, 4.000000, 4.000000, 4.000000, 4.000000
65.000000, 0.000000, 4412.307617, 4227.692383, 3986.153809, 4109.743652, 4033.845947, 500.000000, 8148.000000, 8235.000000, 0.000000, 0.000000, 0.000000, 2.000000, 119.500015, 1557646141.703574, 4.000000, 4.000000, 4.000000, 4.000000, 4.000000
66.000000, 0.000000, 4398.974121, 4215.897461, 3971.281982, 4103.589844, 4029.230713, 16201.000000, 8146.000000, 8250.000000, 0.000000, 0.000000, 0.000000, 2.000000, 127.300003, 1557646141.711374, 4.000000, 4.000000, 4.000000, 4.000000, 4.000000
67.000000, 0.000000, 4397.948730, 4229.230469, 3963.589600, 4110.769043, 4034.358887, 500.000000, 8143.000000, 8268.000000, 0.000000, 0.000000, 0.000000, 2.000000, 135.300003, 1557646141.719374, 4.000000, 4.000000, 4.000000, 4.000000, 4.000000
68.000000, 0.000000, 4367.179199, 4192.307617, 3944.615234, 4102.051270, 4004.102539, 16169.000000, 8142.000000, 8283.000000, 0.000000, 0.000000, 0.000000, 2.000000, 143.199997, 1557646141.727274, 4.000000, 4.000000, 4.000000, 4.000000, 4.000000
69.000000, 0.000000, 4383.076660, 4201.538574, 3974.358887, 4154.871582, 4023.076904, 500.000000, 8142.000000, 8285.000000, 0.000000, 0.000000, 0.000000, 2.000000, 151.199997, 1557646141.735274, 4.000000, 4.000000, 4.000000, 4.000000, 4.000000
70.000000, 0.000000, 4424.102539, 4269.743652, 4003.076904, 4177.436035, 4057.948730, 16178.000000, 8145.000000, 8290.000000, 0.000000, 0.000000, 0.000000, 2.000000, 159.199997, 1557646141.743274, 4.000000, 4.000000, 4.000000, 4.000000, 4.000000
71.000000, 0.000000, 4374.358887, 4229.230469, 3951.281982, 4082.563965, 4000.512695, 500.000000, 8150.000000, 8287.000000, 0.000000, 0.000000, 0.000000, 2.000000, 167.099991, 1557646141.751174, 4.000000, 4.000000, 4.000000, 4.000000, 4.000000
72.000000, 0.000000, 4333.846191, 4163.589844, 3911.794678, 4066.666504, 3963.589600, 500.000000, 8156.000000, 8278.000000, 0.000000, 0.000000, 0.000000, 2.000000, 174.900009, 1557646141.758974, 4.000000, 4.000000, 4.000000, 4.000000, 4.000000
73.000000, 0.000000, 4366.153809, 4199.487305, 3928.205078, 4151.794922, 3990.769043, 16151.000000, 8154.000000, 8281.000000, 0.000000, 0.000000, 0.000000, 2.000000, 182.599991, 1557646141.766674, 4.000000, 4.000000, 4.000000, 4.000000, 4.000000
74.000000, 0.000000, 4371.794922, 4239.487305, 3940.512695, 4091.794678, 3987.692139, 500.000000, 8157.000000, 8282.000000, 0.000000, 0.000000, 0.000000, 2.000000, 190.400009, 1557646141.774474, 4.000000, 4.000000, 4.000000, 4.000000, 4.000000
75.000000, 0.000000, 4367.179199, 4238.974121, 3951.281982, 4024.102539, 3989.230713, 16198.000000, 8162.000000, 8274.000000, 0.000000, 0.000000, 0.000000, 2.000000, 198.199997, 1557646141.782274, 4.000000, 4.000000, 4.000000, 4.000000, 4.000000
76.000000, 0.000000, 4404.102539, 4260.000000, 3973.333252, 4157.948730, 4037.435791, 500.000000, 8169.000000, 8270.000000, 0.000000, 0.000000, 0.000000, 2.000000, 206.199997, 1557646141.790274, 4.000000, 4.000000, 4.000000, 4.000000, 4.000000
77.000000, 0.000000, 4401.538574, 4258.461426, 3954.358887, 4201.025391, 4043.076904, 500.000000, 8168.000000, 8282.000000, 0.000000, 0.000000, 0.000000, 2.000000, 214.099991, 1557646141.798174, 4.000000, 4.000000, 4.000000, 4.000000, 4.000000
78.000000, 0.000000, 4363.589844, 4233.846191, 3918.974365, 4077.948730, 3997.948730, 450.000000, 8173.000000, 8269.000000, 0.000000, 0.000000, 0.000000, 2.000000, 222.099991, 1557646141.806174, 4.000000, 4.000000, 4.000000, 4.000000, 4.000000
79.000000, 0.000000, 4378.974121, 4240.000000, 3927.692139, 4101.538574, 3992.307617, 16198.000000, 8172.000000, 8262.000000, 0.000000, 0.000000, 0.000000, 2.000000, 230.099991, 1557646141.814174, 4.000000, 4.000000, 4.000000, 4.000000, 4.000000
80.000000, 0.000000, 4379.487305, 4232.307617, 3910.769043, 4185.127930, 3988.205078, 450.000000, 8168.000000, 8272.000000, 0.000000, 0.000000, 0.000000, 2.000000, 237.900009, 1557646141.821974, 4.000000, 4.000000, 4.000000, 4.000000, 4.000000
81.000000, 0.000000, 4362.563965, 4236.922852, 3878.974365, 4118.974121, 3976.923096, 450.000000, 8171.000000, 8268.000000, 0.000000, 0.000000, 0.000000, 2.000000, 245.699997, 1557646141.829774, 4.000000, 4.000000, 4.000000, 4.000000, 4.000000
82.000000, 0.000000, 4378.974121, 4255.897461, 3882.563965, 4042.563965, 3978.974365, 450.000000, 8172.000000, 8256.000000, 0.000000, 0.000000, 0.000000, 2.000000, 253.400009, 1557646141.837474, 4.000000, 4.000000, 4.000000, 4.000000, 4.000000
83.000000, 0.000000, 4357.435547, 4223.589844, 3858.974365, 4052.307617, 3936.923096, 16198.000000, 8173.000000, 8245.000000, 0.000000, 0.000000, 0.000000, 2.000000, 261.199997, 1557646141.845274, 4.000000, 4.000000, 4.000000, 4.000000, 4.000000
84.000000, 0.000000, 4342.051270, 4225.641113, 3850.769043, 4078.461426, 3927.179443, 450.000000, 8171.000000, 8246.000000, 0.000000, 0.000000, 0.000000, 2.000000, 269.199997, 1557646141.853274, 4.000000, 4.000000, 4.000000, 4.000000, 4.000000
85.000000, 0.000000, 4384.102539, 4275.384277, 3898.461426, 4106.666504, 3985.640869, 450.000000, 8177.000000, 8243.000000, 0.000000, 0.000000, 0.000000, 2.000000, 277.199997, 1557646141.861274, 4.000000, 4.000000, 4.000000, 4.000000, 4.000000
86.000000, 0.000000, 4380.512695, 4250.769043, 3883.076904, 4148.717773, 3973.845947, 450.000000, 8174.000000, 8246.000000, 0.000000, 0.000000, 0.000000, 2.000000, 285.199997, 1557646141.869274, 4.000000, 4.000000, 4.000000, 4.000000, 4.000000
87.000000, 0.000000, 4364.615234, 4248.205078, 3835.897461, 4181.025391, 3928.717773, 16198.000000, 8174.000000, 8254.000000, 0.000000, 0.000000, 0.000000, 2.000000, 293.099991, 1557646141.877174, 4.000000, 4.000000, 4.000000, 4.000000, 4.000000
88.000000, 0.000000, 4394.871582, 4287.179199, 3844.102539, 4111.281738, 3948.205078, 450.000000, 8181.000000, 8244.000000, 0.000000, 0.000000, 0.000000, 2.000000, 300.900009, 1557646141.884974, 4.000000, 4.000000, 4.000000, 4.000000, 4.000000
89.000000, 0.000000, 4356.922852, 4227.692383, 3815.384521, 3993.333252, 3927.179443, 450.000000, 8179.000000, 8246.000000, 0.000000, 0.000000, 0.000000, 2.000000, 308.699997, 1557646141.892774, 4.000000, 4.000000, 4.000000, 4.000000, 4.000000
90.000000, 0.000000, 4293.333008, 4177.436035, 3778.974365, 4045.128174, 3877.948730, 450.000000, 8183.000000, 8264.000000, 0.000000, 0.000000, 0.000000, 2.000000, 316.500015, 1557646141.900574, 4.000000, 4.000000, 4.000000, 4.000000, 4.000000
91.000000, 0.000000, 4294.871582, 4191.794922, 3792.820313, 4117.436035, 3881.025635, 16198.000000, 8190.000000, 8270.000000, 0.000000, 0.000000, 0.000000, 2.000000, 324.199997, 1557646141.908274, 4.000000, 4.000000, 4.000000, 4.000000, 4.000000
92.000000, 0.000000, 4353.846191, 4237.436035, 3835.897461, 4100.512695, 3935.897461, 450.000000, 8191.000000, 8260.000000, 0.000000, 0.000000, 0.000000, 2.000000, 332.099991, 1557646141.916174, 4.000000, 4.000000, 4.000000, 4.000000, 4.000000
93.000000, 0.000000, 4429.230469, 4321.025391, 3885.128174, 4165.127930, 4009.230713, 450.000000, 8190.000000, 8273.000000, 0.000000, 0.000000, 0.000000, 2.000000, 340.099991, 1557646141.924174, 4.000000, 4.000000, 4.000000, 4.000000, 4.000000
94.000000, 0.000000, 4374.871582, 4277.948730, 3834.358887, 4166.666504, 3957.948730, 450.000000, 8182.000000, 8286.000000, 0.000000, 0.000000, 0.000000, 2.000000, 348.099991, 1557646141.932174, 4.000000, 4.000000, 4.000000, 4.000000, 4.000000
95.000000, 0.000000, 4266.666504, 4157.948730, 3743.589600, 4049.230713, 3842.563965, 16198.000000, 8186.000000, 8280.000000, 0.000000, 0.000000, 0.000000, 2.000000, 356.099991, 1557646141.940174, 4.000000, 4.000000, 4.000000, 4.000000, 4.000000
96.000000, 0.000000, 4326.666504, 4227.692383, 3789.743408, 4072.307617, 3894.358887, 450.000000, 8184.000000, 8283.000000, 0.000000, 0.000000, 0.000000, 2.000000, 363.800003, 1557646141.947874, 4.000000, 4.000000, 4.000000, 4.000000, 4.000000
97.000000, 0.000000, 4389.743652, 4293.333008, 3840.000000, 4150.769043, 3958.461426, 450.000000, 8190.000000, 8284.000000, 0.000000, 0.000000, 0.000000, 2.000000, 371.599991, 1557646141.955674, 4.000000, 4.000000, 4.000000, 4.000000, 4.000000
98.000000, 0.000000, 4340.512695, 4217.948730, 3806.666504, 4148.205078, 3902.563965, 450.000000, 8189.000000, 8281.000000, 0.000000, 0.000000, 0.000000, 2.000000, 379.399979, 1557646141.963474, 4.000000, 4.000000, 4.000000, 4.000000, 4.000000
99.000000, 0.000000, 4340.512695, 4228.205078, 3804.615234, 4158.461426, 3896.410156, 16198.000000, 8190.000000, 8278.000000, 0.000000, 0.000000, 0.000000, 2.000000, 387.300003, 1557646141.971374, 4.000000, 4.000000, 4.000000, 4.000000, 4.000000
100.000000, 0.000000, 4323.076660, 4232.307617, 3763.589600, 4102.051270, 3891.281982, 450.000000, 8196.000000, 8272.000000, 0.000000, 0.000000, 0.000000, 2.000000, 395.200027, 1557646141.979274, 4.000000, 4.000000, 4.000000, 4.000000, 4.000000
101.000000, 0.000000, 4282.051270, 4182.563965, 3724.615234, 4021.538330, 3850.769043, 450.000000, 8204.000000, 8266.000000, 0.000000, 0.000000, 0.000000, 2.000000, 403.099991, 1557646141.987174, 4.000000, 4.000000, 4.000000, 4.000000, 4.000000
102.000000, 0.000000, 4327.179199, 4230.256348, 3788.205078, 4104.102539, 3897.435791, 450.000000, 8206.000000, 8266.000000, 0.000000, 0.000000, 0.000000, 2.000000, 411.099991, 1557646141.995174, 4.000000, 4.000000, 4.000000, 4.000000, 4.000000
103.000000, 0.000000, 4350.256348, 4264.102539, 3795.384521, 4205.641113, 3943.076904, 16198.000000, 8197.000000, 8281.000000, 0.000000, 0.000000, 0.000000, 2.000000, 419.099991, 1557646142.003174, 4.000000, 4.000000, 4.000000, 4.000000, 4.000000
104.000000, 0.000000, 4301.025391, 4193.333008, 3696.410156, 4115.384277, 3883.076904, 450.000000, 8200.000000, 8285.000000, 0.000000, 0.000000, 0.000000, 2.000000, 426.899979, 1557646142.010974, 4.000000, 4.000000, 4.000000, 4.000000, 4.000000
105.000000, 0.000000, 4293.846191, 4185.127930, 3676.923096, 4003.076904, 3846.153809, 450.000000, 8202.000000, 8271.000000, 0.000000, 0.000000, 0.000000, 2.000000, 434.599991, 1557646142.018674, 4.000000, 4.000000, 4.000000, 4.000000, 4.000000
106.000000, 0.000000, 4321.538574, 4249.230469, 3729.230713, 4079.487061, 3883.589600, 450.000000, 8194.000000, 8270.000000, 0.000000, 0.000000, 0.000000, 2.000000, 442.399979, 1557646142.026474, 4.000000, 4.000000, 4.000000, 4.000000, 4.000000
107.000000, 0.000000, 4317.436035, 4250.256348, 3709.230713, 4182.051270, 3882.563965, 16198.000000, 8194.000000, 8283.000000, 0.000000, 0.000000, 0.000000, 2.000000, 450.300003, 1557646142.034374, 4.000000, 4.000000, 4.000000, 4.000000, 4.000000
108.000000, 0.000000, 4302.563965, 4206.666504, 3665.128174, 4114.871582, 3843.076904, 450.000000, 8190.000000, 8280.000000, 0.000000, 0.000000, 0.000000, 2.000000, 458.300003, 1557646142.042374, 4.000000, 4.000000, 4.000000, 4.000000, 4.000000
109.000000, 0.000000, 4293.846191, 4198.461426, 3673.845947, 4022.563965, 3838.974365, 450.000000, 8173.000000, 8292.000000, 0.000000, 0.000000, 0.000000, 2.000000, 466.300003, 1557646142.050374, 4.000000, 4.000000, 4.000000, 4.000000, 4.000000
110.000000, 0.000000, 4293.333008, 4219.487305, 3678.974365, 4055.897217, 3860.000000, 450.000000, 8170.000000, 8305.000000, 0.000000, 0.000000, 0.000000, 2.000000, 474.099991, 1557646142.058174, 4.000000, 4.000000, 4.000000, 4.000000, 4.000000
111.000000, 0.000000, 4268.205078, 4188.717773, 3627.179443, 4072.307617, 3831.281982, 16198.000000, 8167.000000, 8307.000000, 0.000000, 0.000000, 0.000000, 2.000000, 482.099991, 1557646142.066174, 4.000000, 4.000000, 4.000000, 4.000000, 4.000000
112.000000, 0.000000, 4265.641113, 4166.666504, 3615.897461, 4032.307617, 3812.307617, 450.000000, 8154.000000, 8316.000000, 0.000000, 0.000000, 0.000000, 2.000000, 490.099991, 1557646142.074174, 4.000000, 4.000000, 4.000000, 4.000000, 4.000000
113.000000, 0.000000, 4304.615234, 4209.743652, 3663.589600, 4036.410156, 3853.845947, 450.000000, 8145.000000, 8317.000000, 0.000000, 0.000000, 0.000000, 2.000000, 497.899979, 1557646142.081974, 4.000000, 4.000000, 4.000000, 4.000000, 4.000000
114.000000, 0.000000, 4299.487305, 4226.666504, 3658.461426, 4074.871582, 3863.589600, 450.000000, 8141.000000, 8317.000000, 0.000000, 0.000000, 0.000000, 2.000000, 505.700027, 1557646142.089774, 4.000000, 4.000000, 4.000000, 4.000000, 4.000000
115.000000, 0.000000, 4270.769043, 4205.641113, 3629.230713, 4086.153809, 3839.487061, 16198.000000, 8121.000000, 8316.000000, 0.000000, 0.000000, 0.000000, 2.000000, 513.399979, 1557646142.097474, 4.000000, 4.000000, 4.000000, 4.000000, 4.000000
116.000000, 0.000000, 4280.000000, 4216.410156, 3648.205078, 4058.461426, 3849.743408, 450.000000, 8110.000000, 8324.000000, 0.000000, 0.000000, 0.000000, 2.000000, 521.200027, 1557646142.105274, 4.000000, 4.000000, 4.000000, 4.000000, 4.000000
117.000000, 0.000000, 4285.641113, 4210.256348, 3665.640869, 4036.410156, 3860.512695, 450.000000, 8103.000000, 8318.000000, 0.000000, 0.000000, 0.000000, 2.000000, 529.099991, 1557646142.113174, 4.000000, 4.000000, 4.000000, 4.000000, 4.000000
118.000000, 0.000000, 4254.871582, 4152.307617, 3628.717773, 4038.974365, 3824.615234, 450.000000, 8094.000000, 8308.000000, 0.000000, 0.000000, 0.000000, 2.000000, 537.099991, 1557646142.121174, 4.000000, 4.000000, 4.000000, 4.000000, 4.000000
119.000000, 0.000000, 4242.563965, 4149.230469, 3604.615234, 4029.743408, 3803.076904, 16198.000000, 8087.000000, 8307.000000, 0.000000, 0.000000, 0.000000, 2.000000, 545.000015, 1557646142.129074, 4.000000, 4.000000, 4.000000, 4.000000, 4.000000
120.000000, 0.000000, 4272.307617, 4220.512695, 3630.769043, 4049.743408, 3832.307617, 450.000000, 8083.000000, 8315.000000, 0.000000, 0.000000, 0.000000, 2.000000, 553.000015, 1557646142.137074, 4.000000, 4.000000, 4.000000, 4.000000, 4.000000
121.000000, 0.000000, 4291.281738, 4241.538574, 3632.307617, 4069.230713, 3850.769043, 450.000000, 8079.000000, 8309.000000, 0.000000, 0.000000, 0.000000, 2.000000, 561.000015, 1557646142.145074, 4.000000, 4.000000, 4.000000, 4.000000, 4.000000
122.000000, 0.000000, 4267.179199, 4196.410156, 3588.205078, 4051.281982, 3832.307617, 450.000000, 8082.000000, 8300.000000, 0.000000, 0.000000, 0.000000, 2.000000, 568.800003, 1557646142.152874, 4.000000, 4.000000, 4.000000, 4.000000, 4.000000
123.000000, 0.000000, 4250.769043, 4196.922852, 3567.179443, 4066.666504, 3819.487061, 16198.000000, 8078.000000, 8309.000000, 0.000000, 0.000000, 0.000000, 2.000000, 576.599991, 1557646142.160674, 4.000000, 4.000000, 4.000000, 4.000000, 4.000000
124.000000, 0.000000, 4256.922852, 4209.743652, 3563.589600, 4057.948730, 3802.563965, 450.000000, 8082.000000, 8310.000000, 0.000000, 0.000000, 0.000000, 2.000000, 584.300003, 1557646142.168374, 4.000000, 4.000000, 4.000000, 4.000000, 4.000000
125.000000, 0.000000, 4233.333008, 4163.076660, 3538.461426, 3984.102539, 3765.640869, 450.000000, 8084.000000, 8311.000000, 0.000000, 0.000000, 0.000000, 2.000000, 592.200027, 1557646142.176274, 4.000000, 4.000000, 4.000000, 4.000000, 4.000000
126.000000, 0.000000, 4231.794922, 4175.897461, 3544.615234, 4002.051270, 3779.487061, 450.000000, 8082.000000, 8319.000000, 0.000000, 0.000000, 0.000000, 2.000000, 600.200027, 1557646142.184274, 4.000000, 4.000000, 4.000000, 4.000000, 4.000000
127.000000, 0.000000, 4247.179199, 4214.358887, 3564.615234, 4063.589600, 3808.717773, 16198.000000, 8085.000000, 8321.000000, 0.000000, 0.000000, 0.000000, 2.000000, 608.200027, 1557646142.192274, 4.000000, 4.000000, 4.000000, 4.000000, 4.000000
128.000000, 0.000000, 4226.153809, 4183.589844, 3555.384521, 3982.051270, 3788.717773, 500.000000, 8088.000000, 8321.000000, 0.000000, 0.000000, 0.000000, 2.000000, 616.099991, 1557646142.200174, 4.000000, 4.000000, 4.000000, 4.000000, 4.000000
0.000000, 0.000000, 4246.153809, 4197.436035, 3569.743408, 3976.923096, 3810.256348, 500.000000, 8092.000000, 8328.000000, 0.000000, 0.000000, 0.000000, 2.000000, 624.099991, 1557646142.208174, 4.000000, 4.000000, 4.000000, 4.000000, 4.000000
1.000000, 0.000000, 4272.307617, 4216.922852, 3556.410156, 4084.615234, 3832.820313, 500.000000, 8089.000000, 8327.000000, 0.000000, 0.000000, 0.000000, 2.000000, 631.899979, 1557646142.215974, 4.000000, 4.000000, 4.000000, 4.000000, 4.000000
2.000000, 0.000000, 4233.846191, 4180.512695, 3498.461426, 4024.615234, 3787.692139, 16202.000000, 8097.000000, 8319.000000, 0.000000, 0.000000, 0.000000, 2.000000, 639.700027, 1557646142.223774, 4.000000, 4.000000, 4.000000, 4.000000, 4.000000
3.000000, 0.000000, 4217.436035, 4191.794922, 3498.974365, 3930.769043, 3773.333252, 500.000000, 8103.000000, 8313.000000, 0.000000, 0.000000, 0.000000, 2.000000, 647.500015, 1557646142.231574, 4.000000, 4.000000, 4.000000, 4.000000, 4.000000
4.000000, 0.000000, 4255.897461, 4234.358887, 3546.153809, 3976.410156, 3814.871582, 16169.000000, 8107.000000, 8320.000000, 0.000000, 0.000000, 0.000000, 2.000000, 655.200027, 1557646142.239274, 4.000000, 4.000000, 4.000000, 4.000000, 4.000000
5.000000, 0.000000, 4250.769043, 4194.358887, 3531.794678, 4001.025635, 3812.820313, 500.000000, 8105.000000, 8322.000000, 0.000000, 0.000000, 0.000000, 2.000000, 663.099991, 1557646142.247174, 4.000000, 4.000000, 4.000000, 4.000000, 4.000000
6.000000, 0.000000, 4225.641113, 4168.717773, 3485.128174, 3980.000000, 3792.820313, 16171.000000, 8110.000000, 8313.000000, 0.000000, 0.000000, 0.000000, 2.000000, 671.099991, 1557646142.255174, 4.000000, 4.000000, 4.000000, 4.000000, 4.000000
7.000000, 0.000000, 4243.589844, 4218.461426, 3480.512695, 3996.410156, 3816.410156, 500.000000, 8112.000000, 8315.000000, 0.000000, 0.000000, 0.000000, 2.000000, 679.099991, 1557646142.263174, 4.000000, 4.000000, 4.000000, 4.000000, 4.000000
8.000000, 0.000000, 4255.897461, 4229.230469, 3486.666504, 3965.128174, 3832.820313, 500.000000, 8111.000000, 8324.000000, 0.000000, 0.000000, 0.000000, 2.000000, 687.099991, 1557646142.271174, 4.000000, 4.000000, 4.000000, 4.000000, 4.000000
9.000000, 0.000000, 4246.153809, 4200.000000, 3475.384521, 3960.000000, 3825.128174, 16139.000000, 8107.000000, 8319.000000, 0.000000, 0.000000, 0.000000, 2.000000, 694.800003, 1557646142.278874, 4.000000, 4.000000, 4.000000, 4.000000, 4.000000
10.000000, 0.000000, 4228.717773, 4181.025391, 3461.538330, 4014.358887, 3810.256348, 500.000000, 8103.000000, 8321.000000, 0.000000, 0.000000, 0.000000, 2.000000, 702.599991, 1557646142.286674, 4.000000, 4.000000, 4.000000, 4.000000, 4.000000
11.000000, 0.000000, 4222.051270, 4180.000000, 3453.846191, 3960.512695, 3798.461426, 16179.000000, 8102.000000, 8321.000000, 0.000000, 0.000000, 0.000000, 2.000000, 710.399979, 1557646142.294474, 4.000000, 4.000000, 4.000000, 4.000000, 4.000000
12.000000, 0.000000, 4213.333008, 4177.948730, 3435.384521, 3893.845947, 3789.230713, 500.000000, 8103.000000, 8320.000000, 0.000000, 0.000000, 0.000000, 2.000000, 718.200027, 1557646142.302274, 4.000000, 4.000000, 4.000000, 4.000000, 4.000000
13.000000, 0.000000, 4207.179199, 4178.974121, 3432.820313, 3941.025635, 3801.538330, 500.000000, 8103.000000, 8323.000000, 0.000000, 0.000000, 0.000000, 2.000000, 726.000015, 1557646142.310074, 4.000000, 4.000000, 4.000000, 4.000000, 4.000000
14.000000, 0.000000, 4225.641113, 4204.615234, 3460.512695, 3969.230713, 3834.871582, 450.000000, 8100.000000, 8328.000000, 0.000000, 0.000000, 0.000000, 2.000000, 734.000015, 1557646142.318074, 4.000000, 4.000000, 4.000000, 4.000000, 4.000000
15.000000, 0.000000, 4203.076660, 4181.538574, 3434.358887, 3922.563965, 3807.692139, 16179.000000, 8100.000000, 8328.000000, 0.000000, 0.000000, 0.000000, 2.000000, 742.000015, 1557646142.326074, 4.000000, 4.000000, 4.000000, 4.000000, 4.000000
16.000000, 0.000000, 4182.563965, 4170.256348, 3416.410156, 3942.051270, 3788.205078, 0.000000, 8088.000000, 8332.000000, 0.000000, 0.000000, 0.000000, 2.000000, 750.000015, 1557646142.334074, 4.000000, 4.000000, 4.000000, 4.000000, 4.000000
17.000000, 0.000000, 4191.794922, 4198.974121, 3447.692139, 3955.384521, 3821.025635, 0.000000, 8089.000000, 8334.000000, 0.000000, 0.000000, 0.000000, 2.000000, 758.000015, 1557646142.342074, 4.000000, 4.000000, 4.000000, 4.000000, 4.000000
18.000000, 0.000000, 4191.794922, 4204.615234, 3464.615234, 3887.692139, 3828.205078, 0.000000, 8090.000000, 8348.000000, 0.000000, 0.000000, 0.000000, 2.000000, 765.700027, 1557646142.349774, 4.000000, 4.000000, 4.000000, 4.000000, 4.000000
19.000000, 0.000000, 4200.000000, 4196.410156, 3464.102539, 3903.589600, 3812.307617, 0.000000, 8094.000000, 8335.000000, 0.000000, 0.000000, 0.000000, 2.000000, 773.500015, 1557646142.357574, 4.000000, 4.000000, 4.000000, 4.000000, 4.000000
20.000000, 0.000000, 4207.692383, 4196.922852, 3470.256348, 3974.358887, 3815.897461, 0.000000, 8106.000000, 8346.000000, 0.000000, 0.000000, 0.000000, 2.000000, 781.300003, 1557646142.365374, 4.000000, 4.000000, 4.000000, 4.000000, 4.000000
21.000000, 0.000000, 4210.769043, 4228.717773, 3492.820313, 3955.384521, 3844.102539, 0.000000, 8103.000000, 8348.000000, 0.000000, 0.000000, 0.000000, 2.000000, 789.300003, 1557646142.373374, 4.000000, 4.000000, 4.000000, 4.000000, 4.000000
22.000000, 0.000000, 4202.051270, 4237.436035, 3476.410156, 3883.076904, 3842.563965, 0.000000, 8103.000000, 8355.000000, 0.000000, 0.000000, 0.000000, 2.000000, 797.200027, 1557646142.381274, 4.000000, 4.000000, 4.000000, 4.000000, 4.000000
23.000000, 0.000000, 4182.051270, 4193.846191, 3412.820313, 3901.538330, 3804.615234, 0.000000, 8103.000000, 8355.000000, 0.000000, 0.000000, 0.000000, 2.000000, 805.099991, 1557646142.389174, 4.000000, 4.000000, 4.000000, 4.000000, 4.000000
24.000000, 0.000000, 4182.051270, 4184.615234, 3402.051270, 3964.615234, 3800.512695, 0.000000, 8108.000000, 8352.000000, 0.000000, 0.000000, 0.000000, 2.000000, 813.099991, 1557646142.397174, 4.000000, 4.000000, 4.000000, 4.000000, 4.000000
25.000000, 0.000000, 4196.410156, 4224.102539, 3439.487061, 3937.435791, 3830.769043, 0.000000, 8116.000000, 8350.000000, 0.000000, 0.000000, 0.000000, 2.000000, 821.099991, 1557646142.405174, 4.000000, 4.000000, 4.000000, 4.000000, 4.000000
26.000000, 0.000000, 4169.230469, 4197.948730, 3407.179443, 3885.128174, 3815.897461, 0.000000, 8117.000000, 8352.000000, 0.000000, 0.000000, 0.000000, 2.000000, 828.899979, 1557646142.412974, 4.000000, 4.000000, 4.000000, 4.000000, 4.000000
27.000000, 0.000000, 4153.333008, 4166.153809, 3371.794678, 3908.717773, 3795.897461, 0.000000, 8127.000000, 8362.000000, 0.000000, 0.000000, 0.000000, 2.000000, 836.600003, 1557646142.420674, 4.000000, 4.000000, 4.000000, 4.000000, 4.000000
28.000000, 0.000000, 4189.230469, 4224.102539, 3414.871826, 3936.923096, 3815.384521, 0.000000, 8126.000000, 8350.000000, 0.000000, 0.000000, 0.000000, 2.000000, 844.400003, 1557646142.428474, 4.000000, 4.000000, 4.000000, 4.000000, 4.000000
29.000000, 0.000000, 4185.641113, 4247.179199, 3431.281982, 3912.820313, 3815.897461, 0.000000, 8135.000000, 8352.000000, 0.000000, 0.000000, 0.000000, 2.000000, 852.200003, 1557646142.436274, 4.000000, 4.000000, 4.000000, 4.000000, 4.000000
30.000000, 0.000000, 4160.000000, 4213.846191, 3400.000000, 3933.845947, 3814.871582, 0.000000, 8141.000000, 8359.000000, 0.000000, 0.000000, 0.000000, 2.000000, 860.200003, 1557646142.444274, 4.000000, 4.000000, 4.000000, 4.000000, 4.000000
31.000000, 0.000000, 4166.666504, 4208.205078, 3389.743408, 3958.461426, 3827.179443, 0.000000, 8139.000000, 8354.000000, 0.000000, 0.000000, 0.000000, 2.000000, 868.200005, 1557646142.452274, 4.000000, 4.000000, 4.000000, 4.000000, 4.000000
32.000000, 0.000000, 4143.589844, 4196.410156, 3392.820313, 3876.410156, 3807.692139, 0.000000, 8140.000000, 8343.000000, 0.000000, 0.000000, 0.000000, 2.000000, 876.100002, 1557646142.460174, 4.000000, 4.000000, 4.000000, 4.000000, 4.000000
33.000000, 0.000000, 4101.025391, 4162.051270, 3383.589600, 3855.384521, 3784.615234, 0.000000, 8149.000000, 8340.000000, 0.000000, 0.000000, 0.000000, 2.000000, 884.100002, 1557646142.468174, 4.000000, 4.000000, 4.000000, 4.000000, 4.000000
34.000000, 0.000000, 4109.743652, 4171.794922, 3373.846191, 3966.153809, 3792.820313, 0.000000, 8152.000000, 8355.000000, 0.000000, 0.000000, 0.000000, 2.000000, 891.900002, 1557646142.475974, 4.000000, 4.000000, 4.000000, 4.000000, 4.000000
35.000000, 0.000000, 4135.897461, 4211.281738, 3375.384521, 3982.563965, 3807.179443, 0.000000, 8162.000000, 8355.000000, 0.000000, 0.000000, 0.000000, 2.000000, 899.700005, 1557646142.483774, 4.000000, 4.000000, 4.000000, 4.000000, 4.000000
36.000000, 0.000000, 4113.333008, 4200.512695, 3373.846191, 3867.179443, 3806.666504, 0.000000, 8161.000000, 8349.000000, 0.000000, 0.000000, 0.000000, 2.000000, 907.500000, 1557646142.491574, 4.000000, 4.000000, 4.000000, 4.000000, 4.000000
37.000000, 0.000000, 4075.384521, 4168.717773, 3378.461426, 3846.153809, 3792.820313, 0.000000, 8170.000000, 8355.000000, 0.000000, 0.000000, 0.000000, 2.000000, 915.200005, 1557646142.499274, 4.000000, 4.000000, 4.000000, 4.000000, 4.000000
38.000000, 0.000000, 4082.563965, 4177.436035, 3422.051270, 3958.461426, 3794.358887, 0.000000, 8169.000000, 8351.000000, 0.000000, 0.000000, 0.000000, 2.000000, 923.100006, 1557646142.507174, 4.000000, 4.000000, 4.000000, 4.000000, 4.000000
39.000000, 0.000000, 4116.410156, 4205.127930, 3486.153809, 3993.333252, 3830.256348, 0.000000, 8167.000000, 8347.000000, 0.000000, 0.000000, 0.000000, 2.000000, 931.100006, 1557646142.515174, 4.000000, 4.000000, 4.000000, 4.000000, 4.000000
40.000000, 0.000000, 4118.974121, 4212.820313, 3509.230713, 3898.461426, 3849.743408, 0.000000, 8175.000000, 8359.000000, 0.000000, 0.000000, 0.000000, 2.000000, 939.100006, 1557646142.523174, 4.000000, 4.000000, 4.000000, 4.000000, 4.000000
41.000000, 0.000000, 4110.256348, 4224.615234, 3526.666504, 3887.692139, 3843.076904, 0.000000, 8186.000000, 8353.000000, 0.000000, 0.000000, 0.000000, 2.000000, 947.000000, 1557646142.531074, 4.000000, 4.000000, 4.000000, 4.000000, 4.000000
42.000000, 0.000000, 4115.897461, 4234.871582, 3584.615234, 3990.769043, 3858.461426, 0.000000, 8199.000000, 8341.000000, 0.000000, 0.000000, 0.000000, 2.000000, 954.800003, 1557646142.538874, 4.000000, 4.000000, 4.000000, 4.000000, 4.000000
43.000000, 0.000000, 4102.563965, 4209.743652, 3623.589600, 4010.256348, 3867.692139, 0.000000, 8196.000000, 8358.000000, 0.000000, 0.000000, 0.000000, 2.000000, 962.600006, 1557646142.546674, 4.000000, 4.000000, 4.000000, 4.000000, 4.000000
44.000000, 0.000000, 4064.615234, 4166.666504, 3600.512695, 3900.000000, 3826.666504, 0.000000, 8201.000000, 8355.000000, 0.000000, 0.000000, 0.000000, 2.000000, 970.400009, 1557646142.554474, 4.000000, 4.000000, 4.000000, 4.000000, 4.000000
45.000000, 0.000000, 4065.640869, 4173.333008, 3608.205078, 3854.358887, 3811.794678, 0.000000, 8203.000000, 8345.000000, 0.000000, 0.000000, 0.000000, 2.000000, 978.300003, 1557646142.562374, 4.000000, 4.000000, 4.000000, 4.000000, 4.000000
46.000000, 0.000000, 4113.846191, 4233.846191, 3687.692139, 3944.102539, 3862.051270, 0.000000, 8203.000000, 8350.000000, 0.000000, 0.000000, 0.000000, 2.000000, 986.000000, 1557646142.570074, 4.000000, 4.000000, 4.000000, 4.000000, 4.000000
47.000000, 0.000000, 4124.615234, 4247.692383, 3724.615234, 3992.307617, 3879.487061, 0.000000, 8204.000000, 8355.000000, 0.000000, 0.000000, 0.000000, 2.000000, 994.000000, 1557646142.578074, 4.000000, 4.000000, 4.000000, 4.000000, 4.000000
48.000000, 0.000000, 4085.128174, 4194.871582, 3678.974365, 3933.845947, 3839.487061, 0.000000, 8212.000000, 8353.000000, 0.000000, 0.000000, 0.000000, 3.000000, 2.000000, 1557646142.586074, 4.000000, 4.000000, 4.000000, 4.000000, 4.000000
49.000000, 0.000000, 4069.743408, 4182.051270, 3659.487061, 3886.666504, 3834.358887, 0.000000, 8215.000000, 8346.000000, 0.000000, 0.000000, 0.000000, 3.000000, 10.000000, 1557646142.594074, 4.000000, 4.000000, 4.000000, 4.000000, 4.000000
50.000000, 0.000000, 4122.051270, 4261.025391, 3722.563965, 3950.769043, 3895.384521, 0.000000, 8212.000000, 8351.000000, 0.000000, 0.000000, 0.000000, 3.000000, 17.900009, 1557646142.601974, 4.000000, 4.000000, 4.000000, 4.000000, 4.000000
51.000000, 0.000000, 4151.281738, 4288.717773, 3754.871582, 4023.076904, 3920.000000, 0.000000, 8210.000000, 8348.000000, 0.000000, 0.000000, 0.000000, 3.000000, 25.699997, 1557646142.609774, 4.000000, 4.000000, 4.000000, 4.000000, 4.000000
52.000000, 0.000000, 4091.281982, 4197.436035, 3683.076904, 3935.384521, 3855.384521, 0.000000, 8211.000000, 8354.000000, 0.000000, 0.000000, 0.000000, 3.000000, 33.500000, 1557646142.617574, 4.000000, 4.000000, 4.000000, 4.000000, 4.000000
53.000000, 0.000000, 4057.948730, 4158.974121, 3646.666504, 3856.410156, 3818.974365, 0.000000, 8209.000000, 8357.000000, 0.000000, 0.000000, 0.000000, 3.000000, 41.300003, 1557646142.625374, 4.000000, 4.000000, 4.000000, 4.000000, 4.000000
54.000000, 0.000000, 4097.436035, 4215.384277, 3704.102539, 3942.563965, 3857.435791, 0.000000, 8211.000000, 8358.000000, 0.000000, 0.000000, 0.000000, 3.000000, 49.300003, 1557646142.633374, 4.000000, 4.000000, 4.000000, 4.000000, 4.000000
55.000000, 0.000000, 4100.000000, 4209.230469, 3725.128174, 3985.640869, 3862.051270, 0.000000, 8214.000000, 8348.000000, 0.000000, 0.000000, 0.000000, 3.000000, 57.100006, 1557646142.641174, 4.000000, 4.000000, 4.000000, 4.000000, 4.000000
56.000000, 0.000000, 4074.358887, 4176.410156, 3711.281982, 3935.897461, 3848.205078, 0.000000, 8207.000000, 8364.000000, 0.000000, 0.000000, 0.000000, 3.000000, 65.100006, 1557646142.649174, 4.000000, 4.000000, 4.000000, 4.000000, 4.000000
57.000000, 0.000000, 4104.102539, 4237.948730, 3755.897461, 3994.358887, 3891.794678, 0.000000, 8209.000000, 8360.000000, 0.000000, 0.000000, 0.000000, 3.000000, 73.100006, 1557646142.657174, 4.000000, 4.000000, 4.000000, 4.000000, 4.000000
58.000000, 0.000000, 4123.076660, 4263.076660, 3786.153809, 4032.307617, 3899.487061, 0.000000, 8206.000000, 8351.000000, 0.000000, 0.000000, 0.000000, 3.000000, 81.100006, 1557646142.665174, 4.000000, 4.000000, 4.000000, 4.000000, 4.000000
59.000000, 0.000000, 4076.923096, 4176.410156, 3732.820313, 3904.615234, 3832.307617, 0.000000, 8203.000000, 8360.000000, 0.000000, 0.000000, 0.000000, 3.000000, 88.900009, 1557646142.672974, 4.000000, 4.000000, 4.000000, 4.000000, 4.000000
60.000000, 0.000000, 4066.666504, 4166.666504, 3712.820313, 3896.923096, 3834.358887, 0.000000, 8200.000000, 8367.000000, 0.000000, 0.000000, 0.000000, 3.000000, 96.599991, 1557646142.680674, 4.000000, 4.000000, 4.000000, 4.000000, 4.000000
61.000000, 0.000000, 4117.436035, 4263.076660, 3780.000000, 3990.769043, 3901.025635, 0.000000, 8201.000000, 8372.000000, 0.000000, 0.000000, 0.000000, 3.000000, 104.400009, 1557646142.688474, 4.000000, 4.000000, 4.000000, 4.000000, 4.000000
62.000000, 0.000000, 4100.512695, 4252.307617, 3789.230713, 3940.512695, 3872.307617, 0.000000, 8198.000000, 8362.000000, 0.000000, 0.000000, 0.000000, 3.000000, 112.300003, 1557646142.696374, 4.000000, 4.000000, 4.000000, 4.000000, 4.000000
63.000000, 0.000000, 4046.153809, 4157.436035, 3722.051270, 3893.333252, 3812.820313, 0.000000, 8193.000000, 8361.000000, 0.000000, 0.000000, 0.000000, 3.000000, 120.099991, 1557646142.704174, 4.000000, 4.000000, 4.000000, 4.000000, 4.000000
64.000000, 0.000000, 4096.922852, 4187.179199, 3754.358887, 3967.692139, 3876.410156, 500.000000, 8194.000000, 8363.000000, 0.000000, 0.000000, 0.000000, 3.000000, 128.000015, 1557646142.712074, 4.000000, 4.000000, 4.000000, 4.000000, 4.000000
65.000000, 0.000000, 4139.487305, 4237.436035, 3823.589600, 3999.487061, 3919.487061, 500.000000, 8202.000000, 8354.000000, 0.000000, 0.000000, 0.000000, 3.000000, 136.000015, 1557646142.720074, 4.000000, 4.000000, 4.000000, 4.000000, 4.000000
66.000000, 0.000000, 4083.589600, 4196.410156, 3797.435791, 3933.333252, 3862.051270, 16182.000000, 8194.000000, 8360.000000, 0.000000, 0.000000, 0.000000, 3.000000, 144.000015, 1557646142.728074, 4.000000, 4.000000, 4.000000, 4.000000, 4.000000
67.000000, 0.000000, 4062.051270, 4174.358887, 3766.153809, 3890.769043, 3848.205078, 500.000000, 8187.000000, 8361.000000, 0.000000, 0.000000, 0.000000, 3.000000, 152.000015, 1557646142.736074, 4.000000, 4.000000, 4.000000, 4.000000, 4.000000
68.000000, 0.000000, 4078.974365, 4171.794922, 3777.435791, 3906.666504, 3856.410156, 16150.000000, 8195.000000, 8359.000000, 0.000000, 0.000000, 0.000000, 3.000000, 159.800003, 1557646142.743874, 4.000000, 4.000000, 4.000000, 4.000000, 4.000000
69.000000, 0.000000, 4103.076660, 4196.410156, 3821.538330, 3964.615234, 3860.512695, 500.000000, 8193.000000, 8363.000000, 0.000000, 0.000000, 0.000000, 3.000000, 167.500015, 1557646142.751574, 4.000000, 4.000000, 4.000000, 4.000000, 4.000000
70.000000, 0.000000, 4154.871582, 4267.692383, 3880.512695, 4005.128174, 3917.948730, 16141.000000, 8190.000000, 8375.000000, 0.000000, 0.000000, 0.000000, 3.000000, 175.300003, 1557646142.759374, 4.000000, 4.000000, 4.000000, 4.000000, 4.000000
71.000000, 0.000000, 4143.589844, 4252.820313, 3858.461426, 3980.000000, 3933.845947, 500.000000, 8192.000000, 8370.000000, 0.000000, 0.000000, 0.000000, 3.000000, 183.099991, 1557646142.767174, 4.000000, 4.000000, 4.000000, 4.000000, 4.000000
72.000000, 0.000000, 4062.563965, 4157.948730, 3772.307617, 3927.179443, 3857.948730, 500.000000, 8188.000000, 8378.000000, 0.000000, 0.000000, 0.000000, 3.000000, 191.099991, 1557646142.775174, 4.000000, 4.000000, 4.000000, 4.000000, 4.000000
73.000000, 0.000000, 4098.461426, 4197.948730, 3792.307617, 3923.589600, 3873.333252, 16110.000000, 8186.000000, 8391.000000, 0.000000, 0.000000, 0.000000, 3.000000, 199.099991, 1557646142.783174, 4.000000, 4.000000, 4.000000, 4.000000, 4.000000
74.000000, 0.000000, 4166.666504, 4267.692383, 3850.256348, 3986.153809, 3941.025635, 500.000000, 8183.000000, 8395.000000, 0.000000, 0.000000, 0.000000, 3.000000, 207.000015, 1557646142.791074, 4.000000, 4.000000, 4.000000, 4.000000, 4.000000
75.000000, 0.000000, 4098.461426, 4200.512695, 3809.743408, 3996.410156, 3895.384521, 16172.000000, 8186.000000, 8391.000000, 0.000000, 0.000000, 0.000000, 3.000000, 215.000015, 1557646142.799074, 4.000000, 4.000000, 4.000000, 4.000000, 4.000000
76.000000, 0.000000, 4043.589600, 4143.589844, 3769.230713, 3883.589600, 3840.512695, 500.000000, 8183.000000, 8392.000000, 0.000000, 0.000000, 0.000000, 3.000000, 222.800003, 1557646142.806874, 4.000000, 4.000000, 4.000000, 4.000000, 4.000000
77.000000, 0.000000, 4077.435791, 4169.743652, 3783.076904, 3838.461426, 3860.000000, 500.000000, 8178.000000, 8400.000000, 0.000000, 0.000000, 0.000000, 3.000000, 230.599991, 1557646142.814674, 4.000000, 4.000000, 4.000000, 4.000000, 4.000000
78.000000, 0.000000, 4132.307617, 4238.974121, 3833.845947, 3983.589600, 3919.487061, 450.000000, 8175.000000, 8398.000000, 0.000000, 0.000000, 0.000000, 3.000000, 238.300003, 1557646142.822374, 4.000000, 4.000000, 4.000000, 4.000000, 4.000000
79.000000, 0.000000, 4133.333008, 4256.922852, 3842.563965, 4031.281982, 3925.128174, 16172.000000, 8170.000000, 8402.000000, 0.000000, 0.000000, 0.000000, 3.000000, 246.099991, 1557646142.830174, 4.000000, 4.000000, 4.000000, 4.000000, 4.000000
80.000000, 0.000000, 4094.358887, 4200.512695, 3787.179443, 3920.000000, 3871.794678, 450.000000, 8170.000000, 8409.000000, 0.000000, 0.000000, 0.000000, 3.000000, 254.099991, 1557646142.838174, 4.000000, 4.000000, 4.000000, 4.000000, 4.000000
81.000000, 0.000000, 4094.871582, 4177.436035, 3770.256348, 3901.538330, 3863.589600, 450.000000, 8174.000000, 8400.000000, 0.000000, 0.000000, 0.000000, 3.000000, 262.099991, 1557646142.846174, 4.000000, 4.000000, 4.000000, 4.000000, 4.000000
82.000000, 0.000000, 4118.461426, 4205.127930, 3802.051270, 3932.820313, 3889.743408, 450.000000, 8162.000000, 8400.000000, 0.000000, 0.000000, 0.000000, 3.000000, 270.099991, 1557646142.854174, 4.000000, 4.000000, 4.000000, 4.000000, 4.000000
83.000000, 0.000000, 4134.871582, 4222.051270, 3836.410156, 3920.512695, 3907.692139, 16172.000000, 8161.000000, 8406.000000, 0.000000, 0.000000, 0.000000, 3.000000, 278.000015, 1557646142.862074, 4.000000, 4.000000, 4.000000, 4.000000, 4.000000
84.000000, 0.000000, 4126.666504, 4199.487305, 3837.435791, 3933.333252, 3908.205078, 450.000000, 8165.000000, 8397.000000, 0.000000, 0.000000, 0.000000, 3.000000, 285.800003, 1557646142.869874, 4.000000, 4.000000, 4.000000, 4.000000, 4.000000
85.000000, 0.000000, 4100.000000, 4170.256348, 3805.640869, 3943.076904, 3885.640869, 450.000000, 8156.000000, 8387.000000, 0.000000, 0.000000, 0.000000, 3.000000, 293.599991, 1557646142.877674, 4.000000, 4.000000, 4.000000, 4.000000, 4.000000
86.000000, 0.000000, 4097.948730, 4196.922852, 3808.717773, 3902.563965, 3867.692139, 450.000000, 8153.000000, 8400.000000, 0.000000, 0.000000, 0.000000, 3.000000, 301.400009, 1557646142.885474, 4.000000, 4.000000, 4.000000, 4.000000, 4.000000
87.000000, 0.000000, 4147.179199, 4262.051270, 3865.640869, 3913.845947, 3903.589600, 16172.000000, 8161.000000, 8398.000000, 0.000000, 0.000000, 0.000000, 3.000000, 309.199997, 1557646142.893274, 4.000000, 4.000000, 4.000000, 4.000000, 4.000000
88.000000, 0.000000, 4121.538574, 4219.487305, 3837.435791, 3895.384521, 3888.717773, 450.000000, 8160.000000, 8387.000000, 0.000000, 0.000000, 0.000000, 3.000000, 317.099991, 1557646142.901174, 4.000000, 4.000000, 4.000000, 4.000000, 4.000000
89.000000, 0.000000, 4056.410156, 4148.205078, 3772.820313, 3849.743408, 3824.615234, 450.000000, 8163.000000, 8375.000000, 0.000000, 0.000000, 0.000000, 3.000000, 325.099991, 1557646142.909174, 4.000000, 4.000000, 4.000000, 4.000000, 4.000000
90.000000, 0.000000, 4116.922852, 4212.820313, 3836.410156, 3907.692139, 3866.153809, 450.000000, 8166.000000, 8383.000000, 0.000000, 0.000000, 0.000000, 3.000000, 333.099991, 1557646142.917174, 4.000000, 4.000000, 4.000000, 4.000000, 4.000000
91.000000, 0.000000, 4166.153809, 4264.615234, 3901.025635, 3925.640869, 3922.051270, 16172.000000, 8167.000000, 8377.000000, 0.000000, 0.000000, 0.000000, 3.000000, 341.099991, 1557646142.925174, 4.000000, 4.000000, 4.000000, 4.000000, 4.000000
92.000000, 0.000000, 4113.846191, 4217.948730, 3872.307617, 3881.025635, 3896.410156, 450.000000, 8172.000000, 8376.000000, 0.000000, 0.000000, 0.000000, 3.000000, 349.000015, 1557646142.933074, 4.000000, 4.000000, 4.000000, 4.000000, 4.000000
93.000000, 0.000000, 4102.563965, 4185.127930, 3852.307617, 3931.794678, 3886.666504, 450.000000, 8174.000000, 8372.000000, 0.000000, 0.000000, 0.000000, 3.000000, 356.800003, 1557646142.940874, 4.000000, 4.000000, 4.000000, 4.000000, 4.000000
94.000000, 0.000000, 4163.589844, 4218.461426, 3875.897461, 4009.230713, 3939.487061, 450.000000, 8176.000000, 8367.000000, 0.000000, 0.000000, 0.000000, 3.000000, 364.599991, 1557646142.948674, 4.000000, 4.000000, 4.000000, 4.000000, 4.000000
95.000000, 0.000000, 4186.153809, 4250.769043, 3885.128174, 3973.845947, 3959.487061, 16172.000000, 8178.000000, 8369.000000, 0.000000, 0.000000, 0.000000, 3.000000, 372.399979, 1557646142.956474, 4.000000, 4.000000, 4.000000, 4.000000, 4.000000
96.000000, 0.000000, 4162.563965, 4241.025391, 3885.128174, 3891.281982, 3925.128174, 450.000000, 8174.000000, 8366.000000, 0.000000, 0.000000, 0.000000, 3.000000, 380.200027, 1557646142.964274, 4.000000, 4.000000, 4.000000, 4.000000, 4.000000
97.000000, 0.000000, 4166.153809, 4227.692383, 3908.205078, 3877.948730, 3926.153809, 450.000000, 8171.000000, 8370.000000, 0.000000, 0.000000, 0.000000, 3.000000, 388.099991, 1557646142.972174, 4.000000, 4.000000, 4.000000, 4.000000, 4.000000
98.000000, 0.000000, 4177.436035, 4225.641113, 3917.948730, 3928.717773, 3944.615234, 450.000000, 8185.000000, 8358.000000, 0.000000, 0.000000, 0.000000, 3.000000, 396.099991, 1557646142.980174, 4.000000, 4.000000, 4.000000, 4.000000, 4.000000
99.000000, 0.000000, 4157.948730, 4218.974121, 3903.589600, 3964.102539, 3930.769043, 16172.000000, 8175.000000, 8354.000000, 0.000000, 0.000000, 0.000000, 3.000000, 404.099991, 1557646142.988174, 4.000000, 4.000000, 4.000000, 4.000000, 4.000000
100.000000, 0.000000, 4136.922852, 4209.230469, 3907.692139, 3940.000000, 3914.871582, 450.000000, 8181.000000, 8365.000000, 0.000000, 0.000000, 0.000000, 3.000000, 412.099991, 1557646142.996174, 4.000000, 4.000000, 4.000000, 4.000000, 4.000000
101.000000, 0.000000, 4155.897461, 4202.051270, 3941.025635, 3924.102539, 3924.615234, 450.000000, 8187.000000, 8352.000000, 0.000000, 0.000000, 0.000000, 3.000000, 419.800003, 1557646143.003874, 4.000000, 4.000000, 4.000000, 4.000000, 4.000000
102.000000, 0.000000, 4186.666504, 4208.205078, 3966.666504, 3950.256348, 3945.128174, 450.000000, 8191.000000, 8358.000000, 0.000000, 0.000000, 0.000000, 3.000000, 427.599991, 1557646143.011674, 4.000000, 4.000000, 4.000000, 4.000000, 4.000000
103.000000, 0.000000, 4184.102539, 4226.153809, 3968.205078, 3947.179443, 3956.410156, 16172.000000, 8186.000000, 8368.000000, 0.000000, 0.000000, 0.000000, 3.000000, 435.399979, 1557646143.019474, 4.000000, 4.000000, 4.000000, 4.000000, 4.000000
104.000000, 0.000000, 4188.205078, 4238.974121, 3984.102539, 3908.717773, 3953.845947, 450.000000, 8180.000000, 8370.000000, 0.000000, 0.000000, 0.000000, 3.000000, 443.200027, 1557646143.027274, 4.000000, 4.000000, 4.000000, 4.000000, 4.000000
105.000000, 0.000000, 4207.179199, 4252.820313, 4029.743408, 3927.179443, 3948.717773, 450.000000, 8188.000000, 8371.000000, 0.000000, 0.000000, 0.000000, 3.000000, 451.200027, 1557646143.035274, 4.000000, 4.000000, 4.000000, 4.000000, 4.000000
106.000000, 0.000000, 4189.743652, 4250.769043, 4031.281982, 3951.281982, 3935.384521, 450.000000, 8181.000000, 8368.000000, 0.000000, 0.000000, 0.000000, 3.000000, 459.099991, 1557646143.043174, 4.000000, 4.000000, 4.000000, 4.000000, 4.000000
107.000000, 0.000000, 4165.127930, 4207.179199, 3990.256348, 3924.102539, 3921.025635, 16172.000000, 8184.000000, 8371.000000, 0.000000, 0.000000, 0.000000, 3.000000, 467.099991, 1557646143.051174, 4.000000, 4.000000, 4.000000, 4.000000, 4.000000
108.000000, 0.000000, 4169.230469, 4184.102539, 3992.820313, 3906.153809, 3920.000000, 450.000000, 8181.000000, 8369.000000, 0.000000, 0.000000, 0.000000, 3.000000, 475.099991, 1557646143.059174, 4.000000, 4.000000, 4.000000, 4.000000, 4.000000
109.000000, 0.000000, 4207.692383, 4233.333008, 4044.102539, 3928.717773, 3952.307617, 450.000000, 8177.000000, 8373.000000, 0.000000, 0.000000, 0.000000, 3.000000, 482.899979, 1557646143.066974, 4.000000, 4.000000, 4.000000, 4.000000, 4.000000
110.000000, 0.000000, 4273.333008, 4260.000000, 4064.615234, 3941.025635, 3994.871582, 450.000000, 8182.000000, 8374.000000, 0.000000, 0.000000, 0.000000, 3.000000, 490.700027, 1557646143.074774, 4.000000, 4.000000, 4.000000, 4.000000, 4.000000
111.000000, 0.000000, 4329.743652, 4221.538574, 4053.333252, 3924.102539, 4016.923096, 16172.000000, 8181.000000, 8361.000000, 0.000000, 0.000000, 0.000000, 3.000000, 498.399979, 1557646143.082474, 4.000000, 4.000000, 4.000000, 4.000000, 4.000000
112.000000, 0.000000, 4361.025391, 4220.000000, 4075.897217, 3914.871582, 4043.076904, 450.000000, 8181.000000, 8366.000000, 0.000000, 0.000000, 0.000000, 3.000000, 506.200027, 1557646143.090274, 4.000000, 4.000000, 4.000000, 4.000000, 4.000000
113.000000, 0.000000, 4403.589844, 4277.436035, 4127.179199, 3933.333252, 4067.179443, 450.000000, 8178.000000, 8376.000000, 0.000000, 0.000000, 0.000000, 3.000000, 514.200027, 1557646143.098274, 4.000000, 4.000000, 4.000000, 4.000000, 4.000000
114.000000, 0.000000, 4430.256348, 4279.487305, 4134.358887, 3945.640869, 4030.256348, 450.000000, 8173.000000, 8374.000000, 0.000000, 0.000000, 0.000000, 3.000000, 522.200027, 1557646143.106274, 4.000000, 4.000000, 4.000000, 4.000000, 4.000000
115.000000, 0.000000, 4408.205078, 4240.512695, 4108.717773, 3923.589600, 3967.692139, 16172.000000, 8172.000000, 8366.000000, 0.000000, 0.000000, 0.000000, 3.000000, 530.099991, 1557646143.114174, 4.000000, 4.000000, 4.000000, 4.000000, 4.000000
116.000000, 0.000000, 4389.230469, 4255.384277, 4123.589844, 3907.692139, 3961.538330, 450.000000, 8166.000000, 8371.000000, 0.000000, 0.000000, 0.000000, 3.000000, 538.099991, 1557646143.122174, 4.000000, 4.000000, 4.000000, 4.000000, 4.000000
117.000000, 0.000000, 4381.025391, 4277.436035, 4150.256348, 3921.025635, 3966.153809, 450.000000, 8163.000000, 8364.000000, 0.000000, 0.000000, 0.000000, 3.000000, 546.099991, 1557646143.130174, 4.000000, 4.000000, 4.000000, 4.000000, 4.000000
118.000000, 0.000000, 4377.948730, 4270.256348, 4168.717773, 3926.666504, 3959.487061, 450.000000, 8162.000000, 8357.000000, 0.000000, 0.000000, 0.000000, 3.000000, 553.899979, 1557646143.137974, 4.000000, 4.000000, 4.000000, 4.000000, 4.000000
119.000000, 0.000000, 4382.563965, 4275.897461, 4207.692383, 3946.666504, 3977.435791, 16172.000000, 8153.000000, 8351.000000, 0.000000, 0.000000, 0.000000, 3.000000, 561.700027, 1557646143.145774, 4.000000, 4.000000, 4.000000, 4.000000, 4.000000
120.000000, 0.000000, 4365.641113, 4281.538574, 4225.127930, 3955.384521, 3961.025635, 450.000000, 8158.000000, 8349.000000, 0.000000, 0.000000, 0.000000, 3.000000, 569.399979, 1557646143.153474, 4.000000, 4.000000, 4.000000, 4.000000, 4.000000
121.000000, 0.000000, 4334.871582, 4241.538574, 4207.179199, 3929.230713, 3900.512695, 450.000000, 8159.000000, 8347.000000, 0.000000, 0.000000, 0.000000, 3.000000, 577.399979, 1557646143.161474, 4.000000, 4.000000, 4.000000, 4.000000, 4.000000
122.000000, 0.000000, 4332.820313, 4221.025391, 4231.281738, 3934.871582, 3888.717773, 450.000000, 8154.000000, 8353.000000, 0.000000, 0.000000, 0.000000, 3.000000, 585.200027, 1557646143.169274, 4.000000, 4.000000, 4.000000, 4.000000, 4.000000
123.000000, 0.000000, 4359.487305, 4282.563965, 4305.641113, 3947.692139, 3932.307617, 16172.000000, 8145.000000, 8357.000000, 0.000000, 0.000000, 0.000000, 3.000000, 593.200027, 1557646143.177274, 4.000000, 4.000000, 4.000000, 4.000000, 4.000000
124.000000, 0.000000, 4368.205078, 4318.461426, 4350.256348, 3954.871582, 3928.717773, 450.000000, 8153.000000, 8345.000000, 0.000000, 0.000000, 0.000000, 3.000000, 601.200027, 1557646143.185274, 4.000000, 4.000000, 4.000000, 4.000000, 4.000000
125.000000, 0.000000, 4343.589844, 4266.153809, 4355.384277, 3990.256348, 3883.076904, 450.000000, 8148.000000, 8345.000000, 0.000000, 0.000000, 0.000000, 3.000000, 609.099991, 1557646143.193174, 4.000000, 4.000000, 4.000000, 4.000000, 4.000000
126.000000, 0.000000, 4310.769043, 4232.307617, 4345.641113, 3942.051270, 3858.461426, 450.000000, 8148.000000, 8352.000000, 0.000000, 0.000000, 0.000000, 3.000000, 616.899979, 1557646143.200974, 4.000000, 4.000000, 4.000000, 4.000000, 4.000000
127.000000, 0.000000, 4309.743652, 4268.205078, 4338.974121, 3882.051270, 3853.845947, 16172.000000, 8148.000000, 8348.000000, 0.000000, 0.000000, 0.000000, 3.000000, 624.700027, 1557646143.208774, 4.000000, 4.000000, 4.000000, 4.000000, 4.000000
128.000000, 0.000000, 4327.179199, 4271.794922, 4345.127930, 3955.384521, 3850.256348, 500.000000, 8145.000000, 8340.000000, 0.000000, 0.000000, 0.000000, 3.000000, 632.500015, 1557646143.216574, 4.000000, 4.000000, 4.000000, 4.000000, 4.000000
0.000000, 0.000000, 4325.127930, 4239.487305, 4345.127930, 3987.179443, 3842.563965, 500.000000, 8144.000000, 8348.000000, 0.000000, 0.000000, 0.000000, 3.000000, 640.300003, 1557646143.224374, 4.000000, 4.000000, 4.000000, 4.000000, 4.000000
1.000000, 0.000000, 4318.461426, 4252.307617, 4337.948730, 3897.948730, 3840.512695, 500.000000, 8145.000000, 8349.000000, 0.000000, 0.000000, 0.000000, 3.000000, 648.099991, 1557646143.232174, 4.000000, 4.000000, 4.000000, 4.000000, 4.000000
2.000000, 0.000000, 4336.410156, 4293.846191, 4353.846191, 3935.384521, 3863.076904, 16180.000000, 8141.000000, 8338.000000, 0.000000, 0.000000, 0.000000, 3.000000, 656.099991, 1557646143.240174, 4.000000, 4.000000, 4.000000, 4.000000, 4.000000
3.000000, 0.000000, 4348.717773, 4297.436035, 4375.897461, 4049.230713, 3885.640869, 500.000000, 8139.000000, 8342.000000, 0.000000, 0.000000, 0.000000, 3.000000, 664.099991, 1557646143.248174, 4.000000, 4.000000, 4.000000, 4.000000, 4.000000
4.000000, 0.000000, 4324.615234, 4263.076660, 4370.769043, 3994.358887, 3864.615234, 16148.000000, 8140.000000, 8343.000000, 0.000000, 0.000000, 0.000000, 3.000000, 672.099991, 1557646143.256174, 4.000000, 4.000000, 4.000000, 4.000000, 4.000000
5.000000, 0.000000, 4307.692383, 4251.281738, 4366.153809, 3930.769043, 3843.589600, 500.000000, 8140.000000, 8345.000000, 0.000000, 0.000000, 0.000000, 3.000000, 679.800003, 1557646143.263874, 4.000000, 4.000000, 4.000000, 4.000000, 4.000000
6.000000, 0.000000, 4309.743652, 4245.641113, 4360.000000, 3987.692139, 3851.281982, 16131.000000, 8135.000000, 8348.000000, 0.000000, 0.000000, 0.000000, 3.000000, 687.599991, 1557646143.271674, 4.000000, 4.000000, 4.000000, 4.000000, 4.000000
7.000000, 0.000000, 4308.717773, 4245.127930, 4350.769043, 3974.358887, 3859.487061, 500.000000, 8134.000000, 8347.000000, 0.000000, 0.000000, 0.000000, 3.000000, 695.399979, 1557646143.279474, 4.000000, 4.000000, 4.000000, 4.000000, 4.000000
8.000000, 0.000000, 4328.717773, 4280.000000, 4372.820313, 3911.794678, 3877.435791, 500.000000, 8130.000000, 8340.000000, 0.000000, 0.000000, 0.000000, 3.000000, 703.300003, 1557646143.287374, 4.000000, 4.000000, 4.000000, 4.000000, 4.000000
9.000000, 0.000000, 4370.769043, 4310.769043, 4412.307617, 4002.563965, 3907.692139, 16093.000000, 8131.000000, 8336.000000, 0.000000, 0.000000, 0.000000, 3.000000, 711.200027, 1557646143.295274, 4.000000, 4.000000, 4.000000, 4.000000, 4.000000
10.000000, 0.000000, 4356.922852, 4301.025391, 4425.127930, 4108.205078, 3902.051270, 500.000000, 8125.000000, 8349.000000, 0.000000, 0.000000, 0.000000, 3.000000, 719.200027, 1557646143.303274, 4.000000, 4.000000, 4.000000, 4.000000, 4.000000
11.000000, 0.000000, 4300.000000, 4286.153809, 4400.000000, 4008.717773, 3860.512695, 16152.000000, 8123.000000, 8356.000000, 0.000000, 0.000000, 0.000000, 3.000000, 727.200027, 1557646143.311274, 4.000000, 4.000000, 4.000000, 4.000000, 4.000000
12.000000, 0.000000, 4311.794922, 4275.384277, 4378.974121, 3933.845947, 3862.563965, 500.000000, 8124.000000, 8343.000000, 0.000000, 0.000000, 0.000000, 3.000000, 735.200027, 1557646143.319274, 4.000000, 4.000000, 4.000000, 4.000000, 4.000000
13.000000, 0.000000, 4369.230469, 4264.102539, 4410.256348, 4028.717773, 3913.845947, 500.000000, 8119.000000, 8349.000000, 0.000000, 0.000000, 0.000000, 3.000000, 743.200027, 1557646143.327274, 4.000000, 4.000000, 4.000000, 4.000000, 4.000000
14.000000, 0.000000, 4376.922852, 4280.000000, 4461.538574, 4084.102539, 3944.102539, 450.000000, 8121.000000, 8362.000000, 0.000000, 0.000000, 0.000000, 3.000000, 750.899979, 1557646143.334974, 4.000000, 4.000000, 4.000000, 4.000000, 4.000000
15.000000, 0.000000, 4356.922852, 4289.230469, 4460.000000, 4070.256348, 3939.487061, 16152.000000, 8122.000000, 8358.000000, 0.000000, 0.000000, 0.000000, 3.000000, 758.700027, 1557646143.342774, 4.000000, 4.000000, 4.000000, 4.000000, 4.000000
16.000000, 0.000000, 4361.538574, 4260.512695, 4423.589844, 4062.563965, 3932.820313, 0.000000, 8122.000000, 8352.000000, 0.000000, 0.000000, 0.000000, 3.000000, 766.500015, 1557646143.350574, 4.000000, 4.000000, 4.000000, 4.000000, 4.000000
17.000000, 0.000000, 4372.307617, 4267.179199, 4433.846191, 4067.179443, 3950.256348, 0.000000, 8124.000000, 8356.000000, 0.000000, 0.000000, 0.000000, 3.000000, 774.300003, 1557646143.358374, 4.000000, 4.000000, 4.000000, 4.000000, 4.000000
18.000000, 0.000000, 4389.230469, 4331.794922, 4486.666504, 4108.205078, 3982.563965, 0.000000, 8126.000000, 8351.000000, 0.000000, 0.000000, 0.000000, 3.000000, 782.300003, 1557646143.366374, 4.000000, 4.000000, 4.000000, 4.000000, 4.000000
19.000000, 0.000000, 4401.538574, 4335.897461, 4505.127930, 4115.384277, 3984.615234, 0.000000, 8124.000000, 8350.000000, 0.000000, 0.000000, 0.000000, 3.000000, 790.200027, 1557646143.374274, 4.000000, 4.000000, 4.000000, 4.000000, 4.000000
20.000000, 0.000000, 4380.000000, 4261.538574, 4481.025391, 4049.230713, 3954.871582, 0.000000, 8128.000000, 8352.000000, 0.000000, 0.000000, 0.000000, 3.000000, 798.200027, 1557646143.382274, 4.000000, 4.000000, 4.000000, 4.000000, 4.000000
21.000000, 0.000000, 4371.794922, 4255.384277, 4484.102539, 4050.256348, 3953.845947, 0.000000, 8127.000000, 8340.000000, 0.000000, 0.000000, 0.000000, 3.000000, 806.200027, 1557646143.390274, 4.000000, 4.000000, 4.000000, 4.000000, 4.000000
22.000000, 0.000000, 4400.000000, 4323.589844, 4516.410156, 4130.256348, 3980.000000, 0.000000, 8138.000000, 8342.000000, 0.000000, 0.000000, 0.000000, 3.000000, 814.000015, 1557646143.398074, 4.000000, 4.000000, 4.000000, 4.000000, 4.000000
23.000000, 0.000000, 4413.846191, 4334.871582, 4531.794922, 4137.948730, 3983.589600, 0.000000, 8138.000000, 8346.000000, 0.000000, 0.000000, 0.000000, 3.000000, 821.700027, 1557646143.405774, 4.000000, 4.000000, 4.000000, 4.000000, 4.000000
24.000000, 0.000000, 4396.922852, 4285.127930, 4526.153809, 4104.615234, 3968.717773, 0.000000, 8141.000000, 8352.000000, 0.000000, 0.000000, 0.000000, 3.000000, 829.500015, 1557646143.413574, 4.000000, 4.000000, 4.000000, 4.000000, 4.000000
25.000000, 0.000000, 4384.615234, 4253.333008, 4515.384277, 4079.487061, 3968.205078, 0.000000, 8145.000000, 8340.000000, 0.000000, 0.000000, 0.000000, 3.000000, 837.300003, 1557646143.421374, 4.000000, 4.000000, 4.000000, 4.000000, 4.000000
26.000000, 0.000000, 4408.205078, 4293.333008, 4531.794922, 4067.179443, 3994.358887, 0.000000, 8142.000000, 8333.000000, 0.000000, 0.000000, 0.000000, 3.000000, 845.300003, 1557646143.429374, 4.000000, 4.000000, 4.000000, 4.000000, 4.000000
27.000000, 0.000000, 4442.051270, 4354.358887, 4573.846191, 4107.179199, 4015.897217, 0.000000, 8147.000000, 8345.000000, 0.000000, 0.000000, 0.000000, 3.000000, 853.300003, 1557646143.437374, 4.000000, 4.000000, 4.000000, 4.000000, 4.000000
28.000000, 0.000000, 4431.794922, 4322.563965, 4574.358887, 4156.922852, 3996.410156, 0.000000, 8151.000000, 8352.000000, 0.000000, 0.000000, 0.000000, 3.000000, 861.200003, 1557646143.445274, 4.000000, 4.000000, 4.000000, 4.000000, 4.000000
