title:deepak sad 2, recorded:12.05.19 07.33.50, timestamp started:2019-05-12T07:33:50.593070+05:30, sampling:128, subject:, labels:COUNTER INTERPOLATED AF3 T7 Pz T8 AF4 RAW_CQ GYROX GYROY MARKER MARKER_HARDWARE SYNC TIME_STAMP_s TIME_STAMP_ms TimeStamp CQ_AF3 CQ_T7 CQ_Pz CQ_T8 CQ_AF4, chan:20, samples:3921, units:emotiv
46.000000, 0.000000, 4583.076660, 4409.230469, 4115.897461, 4064.102539, 4311.794922, 0.000000, 8140.000000, 8351.000000, 1.000000, 4.000000, 0.000000, 0.000000, 0.000000, 1557626630.593071, 4.000000, 4.000000, 2.000000, 4.000000, 4.000000
47.000000, 0.000000, 4561.025391, 4395.897461, 4111.794922, 4060.000000, 4307.692383, 0.000000, 8140.000000, 8356.000000, 0.000000, 0.000000, 0.000000, 0.000000, 8.000000, 1557626630.601071, 4.000000, 4.000000, 2.000000, 4.000000, 4.000000
48.000000, 0.000000, 4521.538574, 4381.025391, 4099.487305, 4057.948730, 4287.692383, 0.000000, 8137.000000, 8354.000000, 0.000000, 0.000000, 0.000000, 0.000000, 16.000000, 1557626630.609071, 4.000000, 4.000000, 2.000000, 4.000000, 4.000000
49.000000, 0.000000, 4494.358887, 4381.025391, 4098.974121, 4075.897217, 4265.641113, 0.000000, 8151.000000, 8355.000000, 0.000000, 0.000000, 0.000000, 0.000000, 23.699982, 1557626630.616771, 4.000000, 4.000000, 2.000000, 4.000000, 4.000000
50.000000, 0.000000, 4476.410156, 4369.230469, 4102.563965, 4083.589600, 4221.025391, 0.000000, 8150.000000, 8351.000000, 0.000000, 0.000000, 0.000000, 0.000000, 31.500000, 1557626630.624571, 4.000000, 4.000000, 2.000000, 4.000000, 4.000000
51.000000, 0.000000, 4433.846191, 4350.256348, 4098.461426, 4065.640869, 4185.127930, 0.000000, 8147.000000, 8345.000000, 0.000000, 0.000000, 0.000000, 0.000000, 39.299988, 1557626630.632371, 4.000000, 4.000000, 2.000000, 4.000000, 4.000000
52.000000, 0.000000, 4398.974121, 4361.538574, 4085.128174, 4048.717773, 4180.000000, 0.000000, 8145.000000, 8350.000000, 0.000000, 0.000000, 0.000000, 0.000000, 47.099976, 1557626630.640171, 4.000000, 4.000000, 2.000000, 4.000000, 4.000000
53.000000, 0.000000, 4400.512695, 4386.153809, 4083.589600, 4042.563965, 4161.025391, 0.000000, 8147.000000, 8352.000000, 0.000000, 0.000000, 0.000000, 0.000000, 55.000000, 1557626630.648071, 4.000000, 4.000000, 2.000000, 4.000000, 4.000000
54.000000, 0.000000, 4391.281738, 4383.076660, 4091.794678, 4046.666504, 4129.230469, 0.000000, 8150.000000, 8344.000000, 0.000000, 0.000000, 0.000000, 0.000000, 63.000000, 1557626630.656071, 4.000000, 4.000000, 2.000000, 4.000000, 4.000000
55.000000, 0.000000, 4357.435547, 4367.692383, 4095.384521, 4059.487061, 4129.743652, 0.000000, 8161.000000, 8342.000000, 0.000000, 0.000000, 0.000000, 0.000000, 71.000000, 1557626630.664071, 4.000000, 4.000000, 2.000000, 4.000000, 4.000000
56.000000, 0.000000, 4337.436035, 4371.794922, 4104.615234, 4062.563965, 4144.615234, 0.000000, 8156.000000, 8349.000000, 0.000000, 0.000000, 0.000000, 0.000000, 79.000000, 1557626630.672071, 4.000000, 4.000000, 2.000000, 4.000000, 4.000000
57.000000, 0.000000, 4330.256348, 4376.922852, 4105.641113, 4052.307617, 4131.281738, 0.000000, 8156.000000, 8352.000000, 0.000000, 0.000000, 0.000000, 0.000000, 86.899963, 1557626630.679971, 4.000000, 4.000000, 2.000000, 4.000000, 4.000000
58.000000, 0.000000, 4310.769043, 4365.641113, 4085.128174, 4049.743408, 4107.179199, 0.000000, 8153.000000, 8339.000000, 0.000000, 0.000000, 0.000000, 0.000000, 94.700012, 1557626630.687771, 4.000000, 4.000000, 2.000000, 4.000000, 4.000000
59.000000, 0.000000, 4300.000000, 4359.487305, 4077.435791, 4049.230713, 4096.410156, 0.000000, 8154.000000, 8341.000000, 0.000000, 0.000000, 0.000000, 0.000000, 102.500000, 1557626630.695571, 4.000000, 4.000000, 2.000000, 4.000000, 4.000000
60.000000, 0.000000, 4306.666504, 4366.666504, 4083.076904, 4042.563965, 4097.436035, 0.000000, 8154.000000, 8348.000000, 0.000000, 0.000000, 0.000000, 0.000000, 110.299988, 1557626630.703371, 4.000000, 4.000000, 2.000000, 4.000000, 4.000000
61.000000, 0.000000, 4306.666504, 4370.256348, 4075.384521, 4047.692139, 4078.974365, 0.000000, 8151.000000, 8346.000000, 0.000000, 0.000000, 0.000000, 0.000000, 118.099976, 1557626630.711171, 4.000000, 4.000000, 2.000000, 4.000000, 4.000000
62.000000, 0.000000, 4282.051270, 4364.615234, 4075.897217, 4053.333252, 4054.358887, 0.000000, 8148.000000, 8345.000000, 0.000000, 0.000000, 0.000000, 0.000000, 126.000000, 1557626630.719071, 4.000000, 4.000000, 2.000000, 4.000000, 4.000000
63.000000, 0.000000, 4252.820313, 4353.333008, 4091.281982, 4050.256348, 4059.487061, 0.000000, 8153.000000, 8348.000000, 0.000000, 0.000000, 0.000000, 0.000000, 134.000000, 1557626630.727071, 4.000000, 4.000000, 2.000000, 4.000000, 4.000000
64.000000, 0.000000, 4254.358887, 4352.307617, 4093.845947, 4049.230713, 4061.025635, 500.000000, 8149.000000, 8346.000000, 0.000000, 0.000000, 0.000000, 0.000000, 142.000000, 1557626630.735071, 4.000000, 4.000000, 2.000000, 4.000000, 4.000000
65.000000, 0.000000, 4259.487305, 4360.000000, 4085.640869, 4048.205078, 4060.000000, 500.000000, 8148.000000, 8344.000000, 0.000000, 0.000000, 0.000000, 0.000000, 149.899963, 1557626630.742971, 4.000000, 4.000000, 2.000000, 4.000000, 4.000000
66.000000, 0.000000, 4249.230469, 4357.435547, 4087.692139, 4045.128174, 4075.897217, 16170.000000, 8143.000000, 8349.000000, 0.000000, 0.000000, 0.000000, 0.000000, 157.700012, 1557626630.750771, 4.000000, 4.000000, 2.000000, 4.000000, 4.000000
67.000000, 0.000000, 4247.692383, 4356.922852, 4093.333252, 4049.743408, 4076.923096, 500.000000, 8147.000000, 8343.000000, 0.000000, 0.000000, 0.000000, 0.000000, 165.500000, 1557626630.758571, 4.000000, 4.000000, 2.000000, 4.000000, 4.000000
68.000000, 0.000000, 4248.717773, 4365.641113, 4087.692139, 4046.666504, 4052.307617, 16100.000000, 8142.000000, 8335.000000, 0.000000, 0.000000, 0.000000, 0.000000, 173.299988, 1557626630.766371, 4.000000, 4.000000, 2.000000, 4.000000, 4.000000
69.000000, 0.000000, 4238.461426, 4353.846191, 4080.000000, 4031.281982, 4038.974365, 500.000000, 8136.000000, 8347.000000, 0.000000, 0.000000, 0.000000, 0.000000, 181.000000, 1557626630.774071, 4.000000, 4.000000, 2.000000, 4.000000, 4.000000
70.000000, 0.000000, 4220.512695, 4341.025391, 4078.974365, 4041.025635, 4053.333252, 189.000000, 8150.000000, 8352.000000, 0.000000, 0.000000, 0.000000, 0.000000, 189.000000, 1557626630.782071, 4.000000, 4.000000, 2.000000, 4.000000, 4.000000
71.000000, 0.000000, 4218.974121, 4356.410156, 4082.563965, 4062.563965, 4063.076904, 500.000000, 8147.000000, 8338.000000, 0.000000, 0.000000, 0.000000, 0.000000, 197.000000, 1557626630.790071, 4.000000, 4.000000, 2.000000, 4.000000, 4.000000
72.000000, 0.000000, 4228.205078, 4367.179199, 4089.230713, 4055.384521, 4060.512695, 500.000000, 8141.000000, 8340.000000, 0.000000, 0.000000, 0.000000, 0.000000, 204.899963, 1557626630.797971, 4.000000, 4.000000, 2.000000, 4.000000, 4.000000
73.000000, 0.000000, 4226.153809, 4357.435547, 4095.384521, 4037.435791, 4047.692139, 295.000000, 8142.000000, 8349.000000, 0.000000, 0.000000, 0.000000, 0.000000, 212.899963, 1557626630.805971, 4.000000, 4.000000, 2.000000, 4.000000, 4.000000
74.000000, 0.000000, 4220.000000, 4353.846191, 4090.769043, 4037.435791, 4043.076904, 500.000000, 8146.000000, 8344.000000, 0.000000, 0.000000, 0.000000, 0.000000, 220.700012, 1557626630.813771, 4.000000, 4.000000, 2.000000, 4.000000, 4.000000
75.000000, 0.000000, 4226.153809, 4353.846191, 4074.358887, 4044.615234, 4033.333252, 16174.000000, 8148.000000, 8336.000000, 0.000000, 0.000000, 0.000000, 0.000000, 228.500000, 1557626630.821571, 4.000000, 4.000000, 2.000000, 4.000000, 4.000000
76.000000, 0.000000, 4224.615234, 4341.538574, 4070.769043, 4037.948730, 4016.410156, 500.000000, 8146.000000, 8339.000000, 0.000000, 0.000000, 0.000000, 0.000000, 236.200012, 1557626630.829271, 4.000000, 4.000000, 2.000000, 4.000000, 4.000000
77.000000, 0.000000, 4203.589844, 4329.743652, 4076.410156, 4017.435791, 4022.051270, 500.000000, 8155.000000, 8341.000000, 0.000000, 0.000000, 0.000000, 0.000000, 244.200012, 1557626630.837271, 4.000000, 4.000000, 2.000000, 4.000000, 4.000000
78.000000, 0.000000, 4197.436035, 4334.358887, 4074.871582, 4009.743408, 4030.256348, 450.000000, 8147.000000, 8343.000000, 0.000000, 0.000000, 0.000000, 0.000000, 252.099976, 1557626630.845171, 4.000000, 4.000000, 2.000000, 4.000000, 4.000000
79.000000, 0.000000, 4203.076660, 4352.307617, 4082.563965, 4027.692139, 4027.179443, 16174.000000, 8149.000000, 8345.000000, 0.000000, 0.000000, 0.000000, 0.000000, 260.099976, 1557626630.853171, 4.000000, 4.000000, 2.000000, 4.000000, 4.000000
80.000000, 0.000000, 4201.538574, 4359.487305, 4092.307617, 4030.769043, 4026.666504, 450.000000, 8157.000000, 8349.000000, 0.000000, 0.000000, 0.000000, 0.000000, 268.000000, 1557626630.861071, 4.000000, 4.000000, 2.000000, 4.000000, 4.000000
81.000000, 0.000000, 4208.717773, 4352.307617, 4090.769043, 4020.512695, 4032.307617, 450.000000, 8155.000000, 8341.000000, 0.000000, 0.000000, 0.000000, 0.000000, 276.000000, 1557626630.869071, 4.000000, 4.000000, 2.000000, 4.000000, 4.000000
82.000000, 0.000000, 4205.641113, 4347.692383, 4093.333252, 4041.538330, 4042.051270, 450.000000, 8149.000000, 8347.000000, 0.000000, 0.000000, 0.000000, 0.000000, 283.799988, 1557626630.876871, 4.000000, 4.000000, 2.000000, 4.000000, 4.000000
83.000000, 0.000000, 4197.436035, 4352.307617, 4091.794678, 4054.871582, 4041.538330, 16174.000000, 8145.000000, 8345.000000, 0.000000, 0.000000, 0.000000, 0.000000, 291.599976, 1557626630.884671, 4.000000, 4.000000, 2.000000, 4.000000, 4.000000
84.000000, 0.000000, 4208.717773, 4354.358887, 4083.076904, 4031.281982, 4042.051270, 450.000000, 8155.000000, 8333.000000, 0.000000, 0.000000, 0.000000, 0.000000, 299.299988, 1557626630.892371, 4.000000, 4.000000, 2.000000, 4.000000, 4.000000
85.000000, 0.000000, 4222.563965, 4350.256348, 4085.128174, 4023.076904, 4050.769043, 450.000000, 8146.000000, 8343.000000, 0.000000, 0.000000, 0.000000, 0.000000, 307.200012, 1557626630.900271, 4.000000, 4.000000, 2.000000, 4.000000, 4.000000
86.000000, 0.000000, 4218.974121, 4346.666504, 4088.717773, 4036.923096, 4051.281982, 450.000000, 8143.000000, 8352.000000, 0.000000, 0.000000, 0.000000, 0.000000, 315.200012, 1557626630.908271, 4.000000, 4.000000, 2.000000, 4.000000, 4.000000
87.000000, 0.000000, 4210.256348, 4340.000000, 4078.974365, 4039.487061, 4040.000000, 16174.000000, 8141.000000, 8353.000000, 0.000000, 0.000000, 0.000000, 0.000000, 323.200012, 1557626630.916271, 4.000000, 4.000000, 2.000000, 4.000000, 4.000000
88.000000, 0.000000, 4205.641113, 4341.025391, 4073.845947, 4036.410156, 4041.025635, 450.000000, 8147.000000, 8345.000000, 0.000000, 0.000000, 0.000000, 0.000000, 331.099976, 1557626630.924171, 4.000000, 4.000000, 2.000000, 4.000000, 4.000000
89.000000, 0.000000, 4201.025391, 4344.102539, 4079.487061, 4031.281982, 4050.256348, 450.000000, 8142.000000, 8340.000000, 0.000000, 0.000000, 0.000000, 0.000000, 339.099976, 1557626630.932171, 4.000000, 4.000000, 2.000000, 4.000000, 4.000000
90.000000, 0.000000, 4198.974121, 4327.179199, 4077.948730, 4022.563965, 4046.666504, 450.000000, 8140.000000, 8347.000000, 0.000000, 0.000000, 0.000000, 0.000000, 347.099976, 1557626630.940171, 4.000000, 4.000000, 2.000000, 4.000000, 4.000000
91.000000, 0.000000, 4202.051270, 4323.076660, 4072.820313, 4025.640869, 4029.230713, 16174.000000, 8145.000000, 8341.000000, 0.000000, 0.000000, 0.000000, 0.000000, 354.899963, 1557626630.947971, 4.000000, 4.000000, 2.000000, 4.000000, 4.000000
92.000000, 0.000000, 4209.743652, 4351.281738, 4070.256348, 4025.640869, 4020.000000, 450.000000, 8138.000000, 8344.000000, 0.000000, 0.000000, 0.000000, 0.000000, 362.599976, 1557626630.955671, 4.000000, 4.000000, 2.000000, 4.000000, 4.000000
93.000000, 0.000000, 4206.666504, 4353.846191, 4064.102539, 4011.281982, 4035.384521, 450.000000, 8137.000000, 8343.000000, 0.000000, 0.000000, 0.000000, 0.000000, 370.399963, 1557626630.963471, 4.000000, 4.000000, 2.000000, 4.000000, 4.000000
94.000000, 0.000000, 4187.179199, 4323.589844, 4058.974365, 4002.563965, 4026.666504, 450.000000, 8142.000000, 8336.000000, 0.000000, 0.000000, 0.000000, 0.000000, 378.200012, 1557626630.971271, 4.000000, 4.000000, 2.000000, 4.000000, 4.000000
95.000000, 0.000000, 4180.000000, 4322.563965, 4055.897217, 4000.000000, 3985.640869, 16174.000000, 8139.000000, 8332.000000, 0.000000, 0.000000, 0.000000, 0.000000, 386.099976, 1557626630.979171, 4.000000, 4.000000, 2.000000, 4.000000, 4.000000
96.000000, 0.000000, 4196.410156, 4343.589844, 4053.845947, 4011.794678, 3995.897217, 450.000000, 8131.000000, 8341.000000, 0.000000, 0.000000, 0.000000, 0.000000, 394.000000, 1557626630.987071, 4.000000, 4.000000, 2.000000, 4.000000, 4.000000
97.000000, 0.000000, 4213.846191, 4346.153809, 4067.179443, 4040.000000, 4055.384521, 450.000000, 8137.000000, 8339.000000, 0.000000, 0.000000, 0.000000, 0.000000, 402.000000, 1557626630.995071, 4.000000, 4.000000, 2.000000, 4.000000, 4.000000
98.000000, 0.000000, 4220.000000, 4347.692383, 4082.563965, 4048.717773, 4069.743408, 450.000000, 8139.000000, 8337.000000, 0.000000, 0.000000, 0.000000, 0.000000, 410.000000, 1557626631.003071, 4.000000, 4.000000, 2.000000, 4.000000, 4.000000
99.000000, 0.000000, 4218.461426, 4356.410156, 4073.333252, 4036.923096, 4037.435791, 16174.000000, 8142.000000, 8349.000000, 0.000000, 0.000000, 0.000000, 0.000000, 417.799988, 1557626631.010871, 4.000000, 4.000000, 2.000000, 4.000000, 4.000000
100.000000, 0.000000, 4212.307617, 4346.666504, 4062.051270, 4030.769043, 4027.179443, 450.000000, 8153.000000, 8347.000000, 0.000000, 0.000000, 0.000000, 0.000000, 425.500000, 1557626631.018571, 4.000000, 4.000000, 2.000000, 4.000000, 4.000000
101.000000, 0.000000, 4207.179199, 4334.358887, 4067.179443, 4029.230713, 4044.615234, 450.000000, 8154.000000, 8335.000000, 0.000000, 0.000000, 0.000000, 0.000000, 433.299988, 1557626631.026371, 4.000000, 4.000000, 2.000000, 4.000000, 4.000000
102.000000, 0.000000, 4211.794922, 4351.794922, 4069.230713, 4017.435791, 4047.179443, 450.000000, 8156.000000, 8335.000000, 0.000000, 0.000000, 0.000000, 0.000000, 441.099976, 1557626631.034171, 4.000000, 4.000000, 2.000000, 4.000000, 4.000000
103.000000, 0.000000, 4225.641113, 4369.230469, 4068.205078, 4011.281982, 4024.102539, 16174.000000, 8152.000000, 8334.000000, 0.000000, 0.000000, 0.000000, 0.000000, 449.099976, 1557626631.042171, 4.000000, 4.000000, 2.000000, 4.000000, 4.000000
104.000000, 0.000000, 4233.846191, 4360.000000, 4075.384521, 4022.051270, 4022.051270, 450.000000, 8154.000000, 8336.000000, 0.000000, 0.000000, 0.000000, 0.000000, 457.000000, 1557626631.050071, 4.000000, 4.000000, 2.000000, 4.000000, 4.000000
105.000000, 0.000000, 4221.025391, 4354.358887, 4088.717773, 4029.743408, 4053.333252, 450.000000, 8151.000000, 8338.000000, 0.000000, 0.000000, 0.000000, 0.000000, 465.000000, 1557626631.058071, 4.000000, 4.000000, 2.000000, 4.000000, 4.000000
106.000000, 0.000000, 4204.102539, 4357.435547, 4089.743408, 4030.256348, 4069.743408, 450.000000, 8147.000000, 8340.000000, 0.000000, 0.000000, 0.000000, 0.000000, 473.000000, 1557626631.066071, 4.000000, 4.000000, 2.000000, 4.000000, 4.000000
107.000000, 0.000000, 4214.358887, 4353.846191, 4074.358887, 4039.487061, 4056.923096, 16174.000000, 8151.000000, 8344.000000, 0.000000, 0.000000, 0.000000, 0.000000, 481.000000, 1557626631.074071, 4.000000, 4.000000, 2.000000, 4.000000, 4.000000
108.000000, 0.000000, 4237.948730, 4356.922852, 4063.076904, 4042.051270, 4040.512695, 450.000000, 8145.000000, 8342.000000, 0.000000, 0.000000, 0.000000, 0.000000, 488.700012, 1557626631.081771, 4.000000, 4.000000, 2.000000, 4.000000, 4.000000
109.000000, 0.000000, 4228.205078, 4354.871582, 4070.256348, 4032.820313, 4034.358887, 450.000000, 8144.000000, 8354.000000, 0.000000, 0.000000, 0.000000, 0.000000, 496.500000, 1557626631.089571, 4.000000, 4.000000, 2.000000, 4.000000, 4.000000
110.000000, 0.000000, 4203.076660, 4346.666504, 4080.512695, 4034.358887, 4034.358887, 450.000000, 8143.000000, 8354.000000, 0.000000, 0.000000, 0.000000, 0.000000, 504.299988, 1557626631.097371, 4.000000, 4.000000, 2.000000, 4.000000, 4.000000
111.000000, 0.000000, 4196.410156, 4352.307617, 4077.435791, 4039.487061, 4031.281982, 16174.000000, 8147.000000, 8344.000000, 0.000000, 0.000000, 0.000000, 0.000000, 512.000000, 1557626631.105071, 4.000000, 4.000000, 2.000000, 4.000000, 4.000000
112.000000, 0.000000, 4202.563965, 4364.102539, 4076.923096, 4029.743408, 4027.692139, 450.000000, 8142.000000, 8356.000000, 0.000000, 0.000000, 0.000000, 0.000000, 519.999988, 1557626631.113071, 4.000000, 4.000000, 2.000000, 4.000000, 4.000000
113.000000, 0.000000, 4215.384277, 4367.179199, 4078.461426, 4025.640869, 4048.205078, 450.000000, 8143.000000, 8357.000000, 0.000000, 0.000000, 0.000000, 0.000000, 527.999988, 1557626631.121071, 4.000000, 4.000000, 2.000000, 4.000000, 4.000000
114.000000, 0.000000, 4220.000000, 4359.487305, 4073.845947, 4040.512695, 4056.410156, 450.000000, 8148.000000, 8349.000000, 0.000000, 0.000000, 0.000000, 0.000000, 535.999989, 1557626631.129071, 4.000000, 4.000000, 2.000000, 4.000000, 4.000000
115.000000, 0.000000, 4216.410156, 4352.307617, 4076.923096, 4045.640869, 4034.358887, 16174.000000, 8150.000000, 8353.000000, 0.000000, 0.000000, 0.000000, 0.000000, 543.699987, 1557626631.136771, 4.000000, 4.000000, 2.000000, 4.000000, 4.000000
116.000000, 0.000000, 4223.076660, 4361.025391, 4089.230713, 4037.948730, 4048.205078, 450.000000, 8148.000000, 8357.000000, 0.000000, 0.000000, 0.000000, 0.000000, 551.499989, 1557626631.144571, 4.000000, 4.000000, 2.000000, 4.000000, 4.000000
117.000000, 0.000000, 4224.102539, 4371.794922, 4094.871582, 4033.845947, 4083.589600, 450.000000, 8152.000000, 8349.000000, 0.000000, 0.000000, 0.000000, 0.000000, 559.299988, 1557626631.152371, 4.000000, 4.000000, 2.000000, 4.000000, 4.000000
118.000000, 0.000000, 4223.076660, 4366.153809, 4089.743408, 4033.845947, 4073.845947, 450.000000, 8148.000000, 8338.000000, 0.000000, 0.000000, 0.000000, 0.000000, 567.099987, 1557626631.160171, 4.000000, 4.000000, 2.000000, 4.000000, 4.000000
119.000000, 0.000000, 4231.281738, 4368.205078, 4086.153809, 4035.384521, 4045.640869, 16174.000000, 8156.000000, 8346.000000, 0.000000, 0.000000, 0.000000, 0.000000, 574.999989, 1557626631.168071, 4.000000, 4.000000, 2.000000, 4.000000, 4.000000
120.000000, 0.000000, 4231.794922, 4375.384277, 4085.640869, 4043.076904, 4042.563965, 450.000000, 8154.000000, 8339.000000, 0.000000, 0.000000, 0.000000, 0.000000, 582.999985, 1557626631.176071, 4.000000, 4.000000, 2.000000, 4.000000, 4.000000
121.000000, 0.000000, 4232.307617, 4363.589844, 4078.974365, 4050.769043, 4047.692139, 450.000000, 8149.000000, 8339.000000, 0.000000, 0.000000, 0.000000, 0.000000, 590.999985, 1557626631.184071, 4.000000, 4.000000, 2.000000, 4.000000, 4.000000
122.000000, 0.000000, 4238.974121, 4347.692383, 4071.794678, 4044.102539, 4054.871582, 450.000000, 8149.000000, 8346.000000, 0.000000, 0.000000, 0.000000, 0.000000, 598.999985, 1557626631.192071, 4.000000, 4.000000, 2.000000, 4.000000, 4.000000
123.000000, 0.000000, 4236.410156, 4350.769043, 4082.051270, 4040.000000, 4061.025635, 16174.000000, 8154.000000, 8352.000000, 0.000000, 0.000000, 0.000000, 0.000000, 606.899986, 1557626631.199971, 4.000000, 4.000000, 2.000000, 4.000000, 4.000000
124.000000, 0.000000, 4228.205078, 4361.025391, 4094.871582, 4041.025635, 4056.923096, 450.000000, 8156.000000, 8343.000000, 0.000000, 0.000000, 0.000000, 0.000000, 614.699989, 1557626631.207771, 4.000000, 4.000000, 2.000000, 4.000000, 4.000000
125.000000, 0.000000, 4229.230469, 4361.025391, 4091.794678, 4036.410156, 4059.487061, 450.000000, 8152.000000, 8342.000000, 0.000000, 0.000000, 0.000000, 0.000000, 622.499985, 1557626631.215571, 4.000000, 4.000000, 2.000000, 4.000000, 4.000000
126.000000, 0.000000, 4232.820313, 4357.435547, 4078.461426, 4037.948730, 4041.025635, 450.000000, 8147.000000, 8352.000000, 0.000000, 0.000000, 0.000000, 0.000000, 630.299988, 1557626631.223371, 4.000000, 4.000000, 2.000000, 4.000000, 4.000000
127.000000, 0.000000, 4232.307617, 4355.384277, 4069.230713, 4036.923096, 4017.948730, 16174.000000, 8149.000000, 8344.000000, 0.000000, 0.000000, 0.000000, 0.000000, 638.099991, 1557626631.231171, 4.000000, 4.000000, 2.000000, 4.000000, 4.000000
128.000000, 0.000000, 4225.641113, 4357.435547, 4073.333252, 4029.230713, 4040.000000, 500.000000, 8143.000000, 8340.000000, 0.000000, 0.000000, 0.000000, 0.000000, 646.099991, 1557626631.239171, 4.000000, 4.000000, 2.000000, 4.000000, 4.000000
0.000000, 0.000000, 4222.051270, 4367.179199, 4087.179443, 4038.461426, 4070.256348, 500.000000, 8143.000000, 8353.000000, 0.000000, 0.000000, 0.000000, 0.000000, 653.999985, 1557626631.247071, 4.000000, 4.000000, 2.000000, 4.000000, 4.000000
1.000000, 0.000000, 4232.820313, 4375.384277, 4095.897217, 4052.820313, 4060.512695, 500.000000, 8146.000000, 8352.000000, 0.000000, 0.000000, 0.000000, 0.000000, 661.999985, 1557626631.255071, 4.000000, 4.000000, 2.000000, 4.000000, 4.000000
2.000000, 0.000000, 4234.871582, 4371.794922, 4089.743408, 4040.000000, 4044.615234, 16185.000000, 8145.000000, 8346.000000, 0.000000, 0.000000, 0.000000, 0.000000, 669.899994, 1557626631.262971, 4.000000, 4.000000, 2.000000, 4.000000, 4.000000
3.000000, 0.000000, 4223.589844, 4362.563965, 4078.461426, 4032.307617, 4044.615234, 500.000000, 8149.000000, 8348.000000, 0.000000, 0.000000, 0.000000, 0.000000, 677.699982, 1557626631.270771, 4.000000, 4.000000, 2.000000, 4.000000, 4.000000
4.000000, 0.000000, 4225.641113, 4357.948730, 4075.384521, 4039.487061, 4044.102539, 16103.000000, 8150.000000, 8344.000000, 0.000000, 0.000000, 0.000000, 0.000000, 685.499985, 1557626631.278571, 4.000000, 4.000000, 2.000000, 4.000000, 4.000000
5.000000, 0.000000, 4229.230469, 4357.948730, 4081.025635, 4030.769043, 4049.743408, 500.000000, 8153.000000, 8337.000000, 0.000000, 0.000000, 0.000000, 0.000000, 693.299988, 1557626631.286371, 4.000000, 4.000000, 2.000000, 4.000000, 4.000000
6.000000, 0.000000, 4227.179199, 4362.051270, 4091.794678, 4025.640869, 4057.948730, 187.000000, 8149.000000, 8341.000000, 0.000000, 0.000000, 0.000000, 0.000000, 701.099991, 1557626631.294171, 4.000000, 4.000000, 2.000000, 4.000000, 4.000000
7.000000, 0.000000, 4234.358887, 4365.641113, 4094.358887, 4038.461426, 4063.589600, 500.000000, 8142.000000, 8346.000000, 0.000000, 0.000000, 0.000000, 0.000000, 709.099991, 1557626631.302171, 4.000000, 4.000000, 2.000000, 4.000000, 4.000000
8.000000, 0.000000, 4237.436035, 4362.051270, 4088.205078, 4036.923096, 4062.563965, 500.000000, 8146.000000, 8336.000000, 0.000000, 0.000000, 0.000000, 0.000000, 717.099991, 1557626631.310171, 4.000000, 4.000000, 2.000000, 4.000000, 4.000000
9.000000, 0.000000, 4216.922852, 4350.256348, 4087.179443, 4024.102539, 4045.640869, 296.000000, 8152.000000, 8342.000000, 0.000000, 0.000000, 0.000000, 0.000000, 725.099991, 1557626631.318171, 4.000000, 4.000000, 2.000000, 4.000000, 4.000000
10.000000, 0.000000, 4208.717773, 4345.127930, 4082.563965, 4029.230713, 4036.410156, 500.000000, 8146.000000, 8356.000000, 0.000000, 0.000000, 0.000000, 0.000000, 732.999985, 1557626631.326071, 4.000000, 4.000000, 2.000000, 4.000000, 4.000000
11.000000, 0.000000, 4232.820313, 4351.281738, 4064.615234, 4032.307617, 4039.487061, 16171.000000, 8149.000000, 8356.000000, 0.000000, 0.000000, 0.000000, 0.000000, 740.999985, 1557626631.334071, 4.000000, 4.000000, 2.000000, 4.000000, 4.000000
12.000000, 0.000000, 4237.948730, 4355.897461, 4059.487061, 4031.281982, 4041.025635, 500.000000, 8156.000000, 8346.000000, 0.000000, 0.000000, 0.000000, 0.000000, 748.799988, 1557626631.341871, 4.000000, 4.000000, 2.000000, 4.000000, 4.000000
13.000000, 0.000000, 4228.205078, 4361.025391, 4077.435791, 4041.025635, 4042.051270, 500.000000, 8148.000000, 8349.000000, 0.000000, 0.000000, 0.000000, 0.000000, 756.799988, 1557626631.349871, 4.000000, 4.000000, 2.000000, 4.000000, 4.000000
14.000000, 0.000000, 4232.307617, 4362.051270, 4084.615234, 4040.000000, 4048.205078, 450.000000, 8159.000000, 8353.000000, 0.000000, 0.000000, 0.000000, 0.000000, 764.499985, 1557626631.357571, 4.000000, 4.000000, 2.000000, 4.000000, 4.000000
15.000000, 0.000000, 4225.127930, 4348.717773, 4073.333252, 4034.871582, 4053.845947, 16171.000000, 8156.000000, 8338.000000, 0.000000, 0.000000, 0.000000, 0.000000, 772.299988, 1557626631.365371, 4.000000, 4.000000, 2.000000, 4.000000, 4.000000
16.000000, 0.000000, 4215.897461, 4342.051270, 4066.153809, 4040.000000, 4044.102539, 0.000000, 8154.000000, 8340.000000, 0.000000, 0.000000, 0.000000, 0.000000, 780.199982, 1557626631.373271, 4.000000, 4.000000, 2.000000, 4.000000, 4.000000
17.000000, 0.000000, 4234.358887, 4353.846191, 4067.179443, 4038.461426, 4031.281982, 0.000000, 8153.000000, 8341.000000, 0.000000, 0.000000, 0.000000, 0.000000, 788.099976, 1557626631.381171, 4.000000, 4.000000, 2.000000, 4.000000, 4.000000
18.000000, 0.000000, 4240.512695, 4349.230469, 4073.333252, 4031.281982, 4041.538330, 0.000000, 8150.000000, 8336.000000, 0.000000, 0.000000, 0.000000, 0.000000, 796.099976, 1557626631.389171, 4.000000, 4.000000, 2.000000, 4.000000, 4.000000
19.000000, 0.000000, 4220.512695, 4332.820313, 4081.025635, 4033.845947, 4053.333252, 0.000000, 8151.000000, 8337.000000, 0.000000, 0.000000, 0.000000, 0.000000, 804.099976, 1557626631.397171, 4.000000, 4.000000, 2.000000, 4.000000, 4.000000
20.000000, 0.000000, 4222.051270, 4341.025391, 4071.794678, 4034.358887, 4027.179443, 0.000000, 8149.000000, 8339.000000, 0.000000, 0.000000, 0.000000, 0.000000, 811.899994, 1557626631.404971, 4.000000, 4.000000, 2.000000, 4.000000, 4.000000
21.000000, 0.000000, 4233.846191, 4349.230469, 4062.563965, 4032.307617, 4016.410156, 0.000000, 8153.000000, 8332.000000, 0.000000, 0.000000, 0.000000, 0.000000, 819.599976, 1557626631.412671, 4.000000, 4.000000, 2.000000, 4.000000, 4.000000
22.000000, 0.000000, 4232.820313, 4342.051270, 4066.666504, 4046.153809, 4040.512695, 0.000000, 8148.000000, 8335.000000, 0.000000, 0.000000, 0.000000, 0.000000, 827.399994, 1557626631.420471, 4.000000, 4.000000, 2.000000, 4.000000, 4.000000
23.000000, 0.000000, 4229.743652, 4347.179199, 4060.512695, 4045.128174, 4025.128174, 0.000000, 8146.000000, 8347.000000, 0.000000, 0.000000, 0.000000, 0.000000, 835.199982, 1557626631.428271, 4.000000, 4.000000, 2.000000, 4.000000, 4.000000
24.000000, 0.000000, 4223.076660, 4358.461426, 4064.102539, 4025.128174, 4010.769043, 0.000000, 8140.000000, 8350.000000, 0.000000, 0.000000, 0.000000, 0.000000, 843.099976, 1557626631.436171, 4.000000, 4.000000, 2.000000, 4.000000, 4.000000
25.000000, 0.000000, 4216.410156, 4359.487305, 4086.666504, 4028.717773, 4040.000000, 0.000000, 8145.000000, 8339.000000, 0.000000, 0.000000, 0.000000, 0.000000, 851.000000, 1557626631.444071, 4.000000, 4.000000, 2.000000, 4.000000, 4.000000
26.000000, 0.000000, 4225.127930, 4358.974121, 4087.179443, 4046.666504, 4038.461426, 0.000000, 8146.000000, 8338.000000, 0.000000, 0.000000, 0.000000, 0.000000, 859.000000, 1557626631.452071, 4.000000, 4.000000, 2.000000, 4.000000, 4.000000
27.000000, 0.000000, 4233.846191, 4354.358887, 4070.769043, 4041.025635, 4016.923096, 0.000000, 8149.000000, 8350.000000, 0.000000, 0.000000, 0.000000, 0.000000, 867.000000, 1557626631.460071, 4.000000, 4.000000, 2.000000, 4.000000, 4.000000
28.000000, 0.000000, 4227.179199, 4357.435547, 4071.794678, 4027.692139, 4041.538330, 0.000000, 8150.000000, 8346.000000, 0.000000, 0.000000, 0.000000, 0.000000, 875.000000, 1557626631.468071, 4.000000, 4.000000, 2.000000, 4.000000, 4.000000
29.000000, 0.000000, 4226.153809, 4368.717773, 4078.974365, 4026.666504, 4064.615234, 0.000000, 8151.000000, 8341.000000, 0.000000, 0.000000, 0.000000, 0.000000, 882.699982, 1557626631.475771, 4.000000, 4.000000, 2.000000, 4.000000, 4.000000
30.000000, 0.000000, 4236.922852, 4365.641113, 4078.974365, 4031.281982, 4032.307617, 0.000000, 8142.000000, 8342.000000, 0.000000, 0.000000, 0.000000, 0.000000, 890.500000, 1557626631.483571, 4.000000, 4.000000, 2.000000, 4.000000, 4.000000
31.000000, 0.000000, 4236.410156, 4361.538574, 4085.640869, 4043.589600, 4020.512695, 0.000000, 8144.000000, 8341.000000, 0.000000, 0.000000, 0.000000, 0.000000, 898.299988, 1557626631.491371, 4.000000, 4.000000, 2.000000, 4.000000, 4.000000
32.000000, 0.000000, 4217.436035, 4361.025391, 4082.563965, 4040.000000, 4057.435791, 0.000000, 8140.000000, 8339.000000, 0.000000, 0.000000, 0.000000, 0.000000, 906.299988, 1557626631.499371, 4.000000, 4.000000, 2.000000, 4.000000, 4.000000
33.000000, 0.000000, 4218.974121, 4349.230469, 4068.717773, 4021.025635, 4063.076904, 0.000000, 8138.000000, 8341.000000, 0.000000, 0.000000, 0.000000, 0.000000, 914.000000, 1557626631.507071, 4.000000, 4.000000, 2.000000, 4.000000, 4.000000
34.000000, 0.000000, 4247.179199, 4350.769043, 4072.307617, 4031.794678, 4031.281982, 0.000000, 8140.000000, 8341.000000, 0.000000, 0.000000, 0.000000, 0.000000, 922.000000, 1557626631.515071, 4.000000, 4.000000, 2.000000, 4.000000, 4.000000
35.000000, 0.000000, 4250.769043, 4370.256348, 4083.589600, 4045.640869, 4029.230713, 0.000000, 8144.000000, 8337.000000, 0.000000, 0.000000, 0.000000, 0.000000, 930.000000, 1557626631.523071, 4.000000, 4.000000, 2.000000, 4.000000, 4.000000
36.000000, 0.000000, 4227.179199, 4368.717773, 4079.487061, 4041.025635, 4051.281982, 0.000000, 8142.000000, 8345.000000, 0.000000, 0.000000, 0.000000, 0.000000, 938.000000, 1557626631.531071, 4.000000, 4.000000, 2.000000, 4.000000, 4.000000
37.000000, 0.000000, 4228.717773, 4355.897461, 4070.256348, 4054.358887, 4036.923096, 0.000000, 8134.000000, 8346.000000, 0.000000, 0.000000, 0.000000, 0.000000, 945.699982, 1557626631.538771, 4.000000, 4.000000, 2.000000, 4.000000, 4.000000
38.000000, 0.000000, 4246.153809, 4357.435547, 4070.256348, 4068.717773, 4028.717773, 0.000000, 8140.000000, 8337.000000, 0.000000, 0.000000, 0.000000, 0.000000, 953.500000, 1557626631.546571, 4.000000, 4.000000, 2.000000, 4.000000, 4.000000
39.000000, 0.000000, 4236.922852, 4359.487305, 4081.025635, 4050.769043, 4061.538330, 0.000000, 8142.000000, 8335.000000, 0.000000, 0.000000, 0.000000, 0.000000, 961.299988, 1557626631.554371, 4.000000, 4.000000, 2.000000, 4.000000, 4.000000
40.000000, 0.000000, 4224.102539, 4355.897461, 4088.717773, 4044.102539, 4065.128174, 0.000000, 8144.000000, 8348.000000, 0.000000, 0.000000, 0.000000, 0.000000, 969.099976, 1557626631.562171, 4.000000, 4.000000, 2.000000, 4.000000, 4.000000
41.000000, 0.000000, 4233.333008, 4354.358887, 4091.794678, 4061.538330, 4034.358887, 0.000000, 8150.000000, 8349.000000, 0.000000, 0.000000, 0.000000, 0.000000, 977.000000, 1557626631.570071, 4.000000, 4.000000, 2.000000, 4.000000, 4.000000
42.000000, 0.000000, 4249.743652, 4356.410156, 4088.205078, 4058.974365, 4029.230713, 0.000000, 8143.000000, 8342.000000, 0.000000, 0.000000, 0.000000, 0.000000, 985.000000, 1557626631.578071, 4.000000, 4.000000, 2.000000, 4.000000, 4.000000
43.000000, 0.000000, 4264.615234, 4367.692383, 4076.923096, 4046.666504, 4039.487061, 0.000000, 8137.000000, 8349.000000, 0.000000, 0.000000, 0.000000, 0.000000, 993.000000, 1557626631.586071, 4.000000, 4.000000, 2.000000, 4.000000, 4.000000
44.000000, 0.000000, 4270.256348, 4382.051270, 4089.743408, 4051.794678, 4037.948730, 0.000000, 8142.000000, 8350.000000, 0.000000, 0.000000, 0.000000, 1.000000, 1.000000, 1557626631.594071, 4.000000, 4.000000, 2.000000, 4.000000, 4.000000
45.000000, 0.000000, 4265.641113, 4385.127930, 4110.769043, 4057.435791, 4054.358887, 0.000000, 8144.000000, 8352.000000, 0.000000, 0.000000, 0.000000, 1.000000, 8.699982, 1557626631.601771, 4.000000, 4.000000, 2.000000, 4.000000, 4.000000
46.000000, 0.000000, 4276.410156, 4379.487305, 4097.948730, 4046.153809, 4077.435791, 0.000000, 8141.000000, 8355.000000, 0.000000, 0.000000, 0.000000, 1.000000, 16.500000, 1557626631.609571, 4.000000, 4.000000, 2.000000, 4.000000, 4.000000
47.000000, 0.000000, 4285.127930, 4383.076660, 4084.102539, 4037.948730, 4069.230713, 0.000000, 8147.000000, 8353.000000, 0.000000, 0.000000, 0.000000, 1.000000, 24.299988, 1557626631.617371, 4.000000, 4.000000, 2.000000, 4.000000, 4.000000
48.000000, 0.000000, 4256.410156, 4386.153809, 4101.538574, 4042.563965, 4058.461426, 0.000000, 8151.000000, 8357.000000, 0.000000, 0.000000, 0.000000, 1.000000, 32.099976, 1557626631.625171, 4.000000, 4.000000, 2.000000, 4.000000, 4.000000
49.000000, 0.000000, 4231.281738, 4373.846191, 4104.102539, 4046.153809, 4062.051270, 0.000000, 8150.000000, 8359.000000, 0.000000, 0.000000, 0.000000, 1.000000, 40.000000, 1557626631.633071, 4.000000, 4.000000, 2.000000, 4.000000, 4.000000
50.000000, 0.000000, 4247.179199, 4372.307617, 4085.128174, 4046.153809, 4053.845947, 0.000000, 8139.000000, 8366.000000, 0.000000, 0.000000, 0.000000, 1.000000, 48.000000, 1557626631.641071, 4.000000, 4.000000, 2.000000, 4.000000, 4.000000
51.000000, 0.000000, 4261.025391, 4386.153809, 4091.794678, 4050.256348, 4046.666504, 0.000000, 8141.000000, 8361.000000, 0.000000, 0.000000, 0.000000, 1.000000, 56.000000, 1557626631.649071, 4.000000, 4.000000, 2.000000, 4.000000, 4.000000
52.000000, 0.000000, 4252.307617, 4383.589844, 4093.845947, 4051.281982, 4041.538330, 0.000000, 8152.000000, 8356.000000, 0.000000, 0.000000, 0.000000, 1.000000, 64.000000, 1557626631.657071, 4.000000, 4.000000, 2.000000, 4.000000, 4.000000
53.000000, 0.000000, 4251.794922, 4369.230469, 4072.820313, 4037.948730, 4017.948730, 0.000000, 8142.000000, 8362.000000, 0.000000, 0.000000, 0.000000, 1.000000, 71.899963, 1557626631.664971, 4.000000, 4.000000, 2.000000, 4.000000, 4.000000
54.000000, 0.000000, 4246.153809, 4366.666504, 4077.435791, 4030.256348, 4016.410156, 0.000000, 8139.000000, 8360.000000, 0.000000, 0.000000, 0.000000, 1.000000, 79.700012, 1557626631.672771, 4.000000, 4.000000, 2.000000, 4.000000, 4.000000
55.000000, 0.000000, 4234.358887, 4373.333008, 4099.487305, 4037.948730, 4043.076904, 0.000000, 8145.000000, 8351.000000, 0.000000, 0.000000, 0.000000, 1.000000, 87.500000, 1557626631.680571, 4.000000, 4.000000, 2.000000, 4.000000, 4.000000
56.000000, 0.000000, 4245.641113, 4377.435547, 4095.897217, 4042.563965, 4042.051270, 0.000000, 8137.000000, 8349.000000, 0.000000, 0.000000, 0.000000, 1.000000, 95.200012, 1557626631.688271, 4.000000, 4.000000, 2.000000, 4.000000, 4.000000
57.000000, 0.000000, 4253.846191, 4374.358887, 4077.435791, 4034.871582, 4027.692139, 0.000000, 8140.000000, 8359.000000, 0.000000, 0.000000, 0.000000, 1.000000, 103.000000, 1557626631.696071, 4.000000, 4.000000, 2.000000, 4.000000, 4.000000
58.000000, 0.000000, 4232.820313, 4358.974121, 4070.769043, 4025.640869, 4024.615234, 0.000000, 8142.000000, 8356.000000, 0.000000, 0.000000, 0.000000, 1.000000, 111.000000, 1557626631.704071, 4.000000, 4.000000, 2.000000, 4.000000, 4.000000
59.000000, 0.000000, 4229.743652, 4348.717773, 4073.333252, 4031.794678, 4019.487061, 0.000000, 8142.000000, 8358.000000, 0.000000, 0.000000, 0.000000, 1.000000, 119.000000, 1557626631.712071, 4.000000, 4.000000, 2.000000, 4.000000, 4.000000
60.000000, 0.000000, 4257.436035, 4361.538574, 4080.000000, 4042.051270, 4041.025635, 0.000000, 8148.000000, 8354.000000, 0.000000, 0.000000, 0.000000, 1.000000, 126.899963, 1557626631.719971, 4.000000, 4.000000, 2.000000, 4.000000, 4.000000
61.000000, 0.000000, 4251.281738, 4375.897461, 4080.000000, 4041.538330, 4069.230713, 0.000000, 8139.000000, 8351.000000, 0.000000, 0.000000, 0.000000, 1.000000, 134.899963, 1557626631.727971, 4.000000, 4.000000, 2.000000, 4.000000, 4.000000
62.000000, 0.000000, 4223.589844, 4368.205078, 4073.845947, 4031.794678, 4043.589600, 0.000000, 8140.000000, 8359.000000, 0.000000, 0.000000, 0.000000, 1.000000, 142.700012, 1557626631.735771, 4.000000, 4.000000, 2.000000, 4.000000, 4.000000
63.000000, 0.000000, 4230.769043, 4352.820313, 4071.281982, 4028.205078, 4013.333252, 0.000000, 8140.000000, 8359.000000, 0.000000, 0.000000, 0.000000, 1.000000, 150.500000, 1557626631.743571, 4.000000, 4.000000, 2.000000, 4.000000, 4.000000
64.000000, 0.000000, 4254.871582, 4357.948730, 4073.333252, 4026.666504, 4030.769043, 500.000000, 8146.000000, 8348.000000, 0.000000, 0.000000, 0.000000, 1.000000, 158.200012, 1557626631.751271, 4.000000, 4.000000, 2.000000, 4.000000, 4.000000
65.000000, 0.000000, 4251.281738, 4360.512695, 4071.794678, 4029.230713, 4043.076904, 500.000000, 8140.000000, 8350.000000, 0.000000, 0.000000, 0.000000, 1.000000, 166.099976, 1557626631.759171, 4.000000, 4.000000, 2.000000, 4.000000, 4.000000
66.000000, 0.000000, 4233.846191, 4349.230469, 4064.615234, 4036.410156, 4025.128174, 16185.000000, 8142.000000, 8361.000000, 0.000000, 0.000000, 0.000000, 1.000000, 174.099976, 1557626631.767171, 4.000000, 4.000000, 2.000000, 4.000000, 4.000000
67.000000, 0.000000, 4238.461426, 4348.717773, 4063.589600, 4028.717773, 4017.948730, 500.000000, 8141.000000, 8356.000000, 0.000000, 0.000000, 0.000000, 1.000000, 182.099976, 1557626631.775171, 4.000000, 4.000000, 2.000000, 4.000000, 4.000000
68.000000, 0.000000, 4241.025391, 4352.820313, 4071.281982, 4020.512695, 4032.820313, 16100.000000, 8146.000000, 8347.000000, 0.000000, 0.000000, 0.000000, 1.000000, 190.000000, 1557626631.783071, 4.000000, 4.000000, 2.000000, 4.000000, 4.000000
69.000000, 0.000000, 4231.281738, 4353.333008, 4080.512695, 4035.384521, 4047.692139, 500.000000, 8145.000000, 8347.000000, 0.000000, 0.000000, 0.000000, 1.000000, 198.000000, 1557626631.791071, 4.000000, 4.000000, 2.000000, 4.000000, 4.000000
70.000000, 0.000000, 4242.051270, 4356.410156, 4077.948730, 4048.205078, 4052.820313, 187.000000, 8147.000000, 8351.000000, 0.000000, 0.000000, 0.000000, 1.000000, 206.000000, 1557626631.799071, 4.000000, 4.000000, 2.000000, 4.000000, 4.000000
71.000000, 0.000000, 4255.897461, 4351.794922, 4072.307617, 4043.076904, 4055.897217, 500.000000, 8149.000000, 8349.000000, 0.000000, 0.000000, 0.000000, 1.000000, 213.799988, 1557626631.806871, 4.000000, 4.000000, 2.000000, 4.000000, 4.000000
72.000000, 0.000000, 4240.512695, 4350.769043, 4078.461426, 4031.794678, 4062.051270, 500.000000, 8145.000000, 8352.000000, 0.000000, 0.000000, 0.000000, 1.000000, 221.500000, 1557626631.814571, 4.000000, 4.000000, 2.000000, 4.000000, 4.000000
73.000000, 0.000000, 4228.717773, 4361.538574, 4076.410156, 4024.102539, 4054.358887, 297.000000, 8147.000000, 8360.000000, 0.000000, 0.000000, 0.000000, 1.000000, 229.299988, 1557626631.822371, 4.000000, 4.000000, 2.000000, 4.000000, 4.000000
74.000000, 0.000000, 4246.666504, 4362.051270, 4066.153809, 4022.563965, 4035.897217, 500.000000, 8146.000000, 8356.000000, 0.000000, 0.000000, 0.000000, 1.000000, 237.299988, 1557626631.830371, 4.000000, 4.000000, 2.000000, 4.000000, 4.000000
75.000000, 0.000000, 4256.922852, 4356.410156, 4081.025635, 4025.128174, 4034.358887, 16175.000000, 8143.000000, 8358.000000, 0.000000, 0.000000, 0.000000, 1.000000, 245.200012, 1557626631.838271, 4.000000, 4.000000, 2.000000, 4.000000, 4.000000
76.000000, 0.000000, 4245.127930, 4357.435547, 4096.922852, 4034.871582, 4050.256348, 500.000000, 8145.000000, 8364.000000, 0.000000, 0.000000, 0.000000, 1.000000, 253.099976, 1557626631.846171, 4.000000, 4.000000, 2.000000, 4.000000, 4.000000
77.000000, 0.000000, 4238.974121, 4351.281738, 4073.333252, 4041.025635, 4054.871582, 500.000000, 8143.000000, 8353.000000, 0.000000, 0.000000, 0.000000, 1.000000, 261.099976, 1557626631.854171, 4.000000, 4.000000, 2.000000, 4.000000, 4.000000
78.000000, 0.000000, 4248.205078, 4347.179199, 4058.461426, 4030.769043, 4042.563965, 450.000000, 8147.000000, 8353.000000, 0.000000, 0.000000, 0.000000, 1.000000, 268.899963, 1557626631.861971, 4.000000, 4.000000, 2.000000, 4.000000, 4.000000
79.000000, 0.000000, 4237.948730, 4353.333008, 4075.384521, 4022.051270, 4036.410156, 16175.000000, 8147.000000, 8360.000000, 0.000000, 0.000000, 0.000000, 1.000000, 276.700012, 1557626631.869771, 4.000000, 4.000000, 2.000000, 4.000000, 4.000000
80.000000, 0.000000, 4206.153809, 4341.538574, 4071.794678, 4013.333252, 4031.794678, 450.000000, 8143.000000, 8354.000000, 0.000000, 0.000000, 0.000000, 1.000000, 284.399963, 1557626631.877471, 4.000000, 4.000000, 2.000000, 4.000000, 4.000000
81.000000, 0.000000, 4190.769043, 4325.127930, 4051.794678, 3995.897217, 4011.281982, 450.000000, 8147.000000, 8346.000000, 0.000000, 0.000000, 0.000000, 1.000000, 292.299988, 1557626631.885371, 4.000000, 4.000000, 2.000000, 4.000000, 4.000000
82.000000, 0.000000, 4206.666504, 4331.281738, 4052.820313, 3991.794678, 3994.871582, 450.000000, 8143.000000, 8348.000000, 0.000000, 0.000000, 0.000000, 1.000000, 300.200012, 1557626631.893271, 4.000000, 4.000000, 2.000000, 4.000000, 4.000000
83.000000, 0.000000, 4216.922852, 4346.666504, 4070.769043, 4007.179443, 4009.230713, 16175.000000, 8142.000000, 8352.000000, 0.000000, 0.000000, 0.000000, 1.000000, 308.200012, 1557626631.901271, 4.000000, 4.000000, 2.000000, 4.000000, 4.000000
84.000000, 0.000000, 4205.641113, 4346.153809, 4076.923096, 4020.000000, 4020.512695, 450.000000, 8140.000000, 8356.000000, 0.000000, 0.000000, 0.000000, 1.000000, 316.099976, 1557626631.909171, 4.000000, 4.000000, 2.000000, 4.000000, 4.000000
85.000000, 0.000000, 4196.922852, 4331.281738, 4063.076904, 4022.563965, 3997.948730, 450.000000, 8146.000000, 8354.000000, 0.000000, 0.000000, 0.000000, 1.000000, 324.099976, 1557626631.917171, 4.000000, 4.000000, 2.000000, 4.000000, 4.000000
86.000000, 0.000000, 4201.025391, 4333.333008, 4054.358887, 4013.845947, 3980.512695, 450.000000, 8140.000000, 8351.000000, 0.000000, 0.000000, 0.000000, 1.000000, 332.099976, 1557626631.925171, 4.000000, 4.000000, 2.000000, 4.000000, 4.000000
87.000000, 0.000000, 4205.641113, 4351.281738, 4068.717773, 4003.589600, 3997.435791, 16175.000000, 8141.000000, 8351.000000, 0.000000, 0.000000, 0.000000, 1.000000, 339.899963, 1557626631.932971, 4.000000, 4.000000, 2.000000, 4.000000, 4.000000
88.000000, 0.000000, 4201.025391, 4348.205078, 4077.948730, 4012.820313, 4023.589600, 450.000000, 8142.000000, 8351.000000, 0.000000, 0.000000, 0.000000, 1.000000, 347.599976, 1557626631.940671, 4.000000, 4.000000, 2.000000, 4.000000, 4.000000
89.000000, 0.000000, 4202.051270, 4330.769043, 4074.871582, 4024.615234, 4031.794678, 450.000000, 8139.000000, 8354.000000, 0.000000, 0.000000, 0.000000, 1.000000, 355.399963, 1557626631.948471, 4.000000, 4.000000, 2.000000, 4.000000, 4.000000
90.000000, 0.000000, 4219.487305, 4345.641113, 4078.461426, 4025.128174, 4027.692139, 450.000000, 8143.000000, 8347.000000, 0.000000, 0.000000, 0.000000, 1.000000, 363.399963, 1557626631.956471, 4.000000, 4.000000, 2.000000, 4.000000, 4.000000
91.000000, 0.000000, 4229.743652, 4366.666504, 4075.897217, 4028.205078, 4028.205078, 16175.000000, 8143.000000, 8348.000000, 0.000000, 0.000000, 0.000000, 1.000000, 371.200012, 1557626631.964271, 4.000000, 4.000000, 2.000000, 4.000000, 4.000000
92.000000, 0.000000, 4218.461426, 4353.846191, 4074.871582, 4033.845947, 4031.281982, 450.000000, 8145.000000, 8356.000000, 0.000000, 0.000000, 0.000000, 1.000000, 379.000000, 1557626631.972071, 4.000000, 4.000000, 2.000000, 4.000000, 4.000000
93.000000, 0.000000, 4217.948730, 4342.563965, 4085.640869, 4031.794678, 4025.128174, 450.000000, 8136.000000, 8354.000000, 0.000000, 0.000000, 0.000000, 1.000000, 387.000000, 1557626631.980071, 4.000000, 4.000000, 2.000000, 4.000000, 4.000000
94.000000, 0.000000, 4239.487305, 4347.692383, 4078.461426, 4025.128174, 4020.000000, 450.000000, 8138.000000, 8341.000000, 0.000000, 0.000000, 0.000000, 1.000000, 395.000000, 1557626631.988071, 4.000000, 4.000000, 2.000000, 4.000000, 4.000000
95.000000, 0.000000, 4237.436035, 4352.820313, 4067.692139, 4026.153809, 4031.794678, 16175.000000, 8141.000000, 8338.000000, 0.000000, 0.000000, 0.000000, 1.000000, 402.899963, 1557626631.995971, 4.000000, 4.000000, 2.000000, 4.000000, 4.000000
96.000000, 0.000000, 4215.897461, 4351.281738, 4073.333252, 4034.358887, 4043.589600, 450.000000, 8142.000000, 8349.000000, 0.000000, 0.000000, 0.000000, 1.000000, 410.700012, 1557626632.003771, 4.000000, 4.000000, 2.000000, 4.000000, 4.000000
97.000000, 0.000000, 4218.461426, 4350.769043, 4075.897217, 4040.000000, 4044.102539, 450.000000, 8137.000000, 8351.000000, 0.000000, 0.000000, 0.000000, 1.000000, 418.500000, 1557626632.011571, 4.000000, 4.000000, 2.000000, 4.000000, 4.000000
98.000000, 0.000000, 4237.948730, 4360.512695, 4072.307617, 4040.512695, 4043.589600, 450.000000, 8141.000000, 8347.000000, 0.000000, 0.000000, 0.000000, 1.000000, 426.500000, 1557626632.019571, 4.000000, 4.000000, 2.000000, 4.000000, 4.000000
99.000000, 0.000000, 4241.538574, 4364.615234, 4074.871582, 4036.923096, 4038.974365, 16175.000000, 8140.000000, 8360.000000, 0.000000, 0.000000, 0.000000, 1.000000, 434.200012, 1557626632.027271, 4.000000, 4.000000, 2.000000, 4.000000, 4.000000
100.000000, 0.000000, 4232.307617, 4349.743652, 4073.333252, 4032.307617, 4024.102539, 450.000000, 8144.000000, 8354.000000, 0.000000, 0.000000, 0.000000, 1.000000, 442.000000, 1557626632.035071, 4.000000, 4.000000, 2.000000, 4.000000, 4.000000
101.000000, 0.000000, 4230.769043, 4345.641113, 4066.666504, 4028.717773, 4016.410156, 450.000000, 8149.000000, 8359.000000, 0.000000, 0.000000, 0.000000, 1.000000, 450.000000, 1557626632.043071, 4.000000, 4.000000, 2.000000, 4.000000, 4.000000
102.000000, 0.000000, 4234.871582, 4366.153809, 4074.871582, 4034.871582, 4019.487061, 450.000000, 8142.000000, 8357.000000, 0.000000, 0.000000, 0.000000, 1.000000, 458.000000, 1557626632.051071, 4.000000, 4.000000, 2.000000, 4.000000, 4.000000
103.000000, 0.000000, 4232.307617, 4374.871582, 4081.025635, 4040.000000, 4019.487061, 16175.000000, 8144.000000, 8349.000000, 0.000000, 0.000000, 0.000000, 1.000000, 465.899963, 1557626632.058971, 4.000000, 4.000000, 2.000000, 4.000000, 4.000000
104.000000, 0.000000, 4225.641113, 4370.256348, 4066.666504, 4032.820313, 4026.153809, 450.000000, 8150.000000, 8349.000000, 0.000000, 0.000000, 0.000000, 1.000000, 473.700012, 1557626632.066771, 4.000000, 4.000000, 2.000000, 4.000000, 4.000000
105.000000, 0.000000, 4225.127930, 4368.717773, 4058.461426, 4022.563965, 4034.358887, 450.000000, 8146.000000, 8354.000000, 0.000000, 0.000000, 0.000000, 1.000000, 481.500000, 1557626632.074571, 4.000000, 4.000000, 2.000000, 4.000000, 4.000000
106.000000, 0.000000, 4232.307617, 4367.692383, 4071.281982, 4025.128174, 4022.051270, 450.000000, 8146.000000, 8353.000000, 0.000000, 0.000000, 0.000000, 1.000000, 489.299988, 1557626632.082371, 4.000000, 4.000000, 2.000000, 4.000000, 4.000000
107.000000, 0.000000, 4231.281738, 4365.127930, 4085.128174, 4032.307617, 4022.051270, 16175.000000, 8152.000000, 8341.000000, 0.000000, 0.000000, 0.000000, 1.000000, 497.200012, 1557626632.090271, 4.000000, 4.000000, 2.000000, 4.000000, 4.000000
108.000000, 0.000000, 4223.589844, 4353.846191, 4085.128174, 4034.871582, 4052.820313, 450.000000, 8150.000000, 8342.000000, 0.000000, 0.000000, 0.000000, 1.000000, 505.200012, 1557626632.098271, 4.000000, 4.000000, 2.000000, 4.000000, 4.000000
109.000000, 0.000000, 4216.410156, 4349.230469, 4076.923096, 4033.845947, 4051.794678, 450.000000, 8148.000000, 8345.000000, 0.000000, 0.000000, 0.000000, 1.000000, 513.200012, 1557626632.106271, 4.000000, 4.000000, 2.000000, 4.000000, 4.000000
110.000000, 0.000000, 4215.384277, 4364.615234, 4068.205078, 4025.640869, 4019.487061, 450.000000, 8140.000000, 8341.000000, 0.000000, 0.000000, 0.000000, 1.000000, 521.199988, 1557626632.114271, 4.000000, 4.000000, 2.000000, 4.000000, 4.000000
111.000000, 0.000000, 4224.102539, 4372.820313, 4071.794678, 4028.205078, 4025.128174, 16175.000000, 8144.000000, 8337.000000, 0.000000, 0.000000, 0.000000, 1.000000, 528.999988, 1557626632.122071, 4.000000, 4.000000, 2.000000, 4.000000, 4.000000
112.000000, 0.000000, 4227.692383, 4366.153809, 4077.435791, 4032.307617, 4033.845947, 450.000000, 8141.000000, 8337.000000, 0.000000, 0.000000, 0.000000, 1.000000, 536.799988, 1557626632.129871, 4.000000, 4.000000, 2.000000, 4.000000, 4.000000
113.000000, 0.000000, 4230.769043, 4367.692383, 4067.692139, 4021.025635, 4013.845947, 450.000000, 8138.000000, 8341.000000, 0.000000, 0.000000, 0.000000, 1.000000, 544.599987, 1557626632.137671, 4.000000, 4.000000, 2.000000, 4.000000, 4.000000
114.000000, 0.000000, 4231.794922, 4368.205078, 4057.948730, 4015.897217, 4024.102539, 450.000000, 8139.000000, 8336.000000, 0.000000, 0.000000, 0.000000, 1.000000, 552.399986, 1557626632.145471, 4.000000, 4.000000, 2.000000, 4.000000, 4.000000
115.000000, 0.000000, 4213.846191, 4351.794922, 4062.051270, 4019.487061, 4041.538330, 16175.000000, 8133.000000, 8338.000000, 0.000000, 0.000000, 0.000000, 1.000000, 560.199989, 1557626632.153271, 4.000000, 4.000000, 2.000000, 4.000000, 4.000000
116.000000, 0.000000, 4201.538574, 4350.769043, 4067.692139, 4025.640869, 4026.666504, 450.000000, 8134.000000, 8342.000000, 0.000000, 0.000000, 0.000000, 1.000000, 568.199989, 1557626632.161271, 4.000000, 4.000000, 2.000000, 4.000000, 4.000000
117.000000, 0.000000, 4213.333008, 4365.127930, 4067.179443, 4028.205078, 4025.128174, 450.000000, 8140.000000, 8337.000000, 0.000000, 0.000000, 0.000000, 1.000000, 576.199989, 1557626632.169271, 4.000000, 4.000000, 2.000000, 4.000000, 4.000000
118.000000, 0.000000, 4223.076660, 4367.179199, 4062.051270, 4025.640869, 4036.410156, 450.000000, 8141.000000, 8344.000000, 0.000000, 0.000000, 0.000000, 1.000000, 584.199989, 1557626632.177271, 4.000000, 4.000000, 2.000000, 4.000000, 4.000000
119.000000, 0.000000, 4224.102539, 4369.743652, 4056.923096, 4021.025635, 4028.205078, 16175.000000, 8139.000000, 8355.000000, 0.000000, 0.000000, 0.000000, 1.000000, 592.099991, 1557626632.185171, 4.000000, 4.000000, 2.000000, 4.000000, 4.000000
120.000000, 0.000000, 4230.769043, 4375.384277, 4058.461426, 4023.589600, 4023.076904, 450.000000, 8145.000000, 8344.000000, 0.000000, 0.000000, 0.000000, 1.000000, 600.099991, 1557626632.193171, 4.000000, 4.000000, 2.000000, 4.000000, 4.000000
121.000000, 0.000000, 4233.333008, 4366.666504, 4066.666504, 4024.615234, 4032.820313, 450.000000, 8151.000000, 8342.000000, 0.000000, 0.000000, 0.000000, 1.000000, 607.899986, 1557626632.200971, 4.000000, 4.000000, 2.000000, 4.000000, 4.000000
122.000000, 0.000000, 4231.281738, 4360.000000, 4075.897217, 4021.538330, 4042.051270, 450.000000, 8143.000000, 8356.000000, 0.000000, 0.000000, 0.000000, 1.000000, 615.699989, 1557626632.208771, 4.000000, 4.000000, 2.000000, 4.000000, 4.000000
123.000000, 0.000000, 4233.846191, 4369.743652, 4081.538330, 4024.102539, 4036.410156, 16175.000000, 8150.000000, 8362.000000, 0.000000, 0.000000, 0.000000, 1.000000, 623.399986, 1557626632.216471, 4.000000, 4.000000, 2.000000, 4.000000, 4.000000
124.000000, 0.000000, 4236.922852, 4367.179199, 4072.820313, 4029.743408, 4016.410156, 450.000000, 8150.000000, 8354.000000, 0.000000, 0.000000, 0.000000, 1.000000, 631.199989, 1557626632.224271, 4.000000, 4.000000, 2.000000, 4.000000, 4.000000
125.000000, 0.000000, 4236.922852, 4356.922852, 4063.076904, 4035.897217, 4016.923096, 450.000000, 8146.000000, 8354.000000, 0.000000, 0.000000, 0.000000, 1.000000, 639.199989, 1557626632.232271, 4.000000, 4.000000, 2.000000, 4.000000, 4.000000
126.000000, 0.000000, 4227.179199, 4357.435547, 4067.179443, 4030.256348, 4047.692139, 450.000000, 8146.000000, 8362.000000, 0.000000, 0.000000, 0.000000, 1.000000, 647.199982, 1557626632.240271, 4.000000, 4.000000, 2.000000, 4.000000, 4.000000
127.000000, 0.000000, 4231.281738, 4353.846191, 4071.281982, 4021.538330, 4046.666504, 16175.000000, 8139.000000, 8363.000000, 0.000000, 0.000000, 0.000000, 1.000000, 655.099991, 1557626632.248171, 4.000000, 4.000000, 2.000000, 4.000000, 4.000000
128.000000, 0.000000, 4243.076660, 4351.281738, 4069.743408, 4019.487061, 4015.897217, 500.000000, 8140.000000, 8361.000000, 0.000000, 0.000000, 0.000000, 1.000000, 663.099991, 1557626632.256171, 4.000000, 4.000000, 2.000000, 4.000000, 4.000000
0.000000, 0.000000, 4234.358887, 4361.538574, 4071.794678, 4018.974365, 4022.051270, 500.000000, 8144.000000, 8365.000000, 0.000000, 0.000000, 0.000000, 1.000000, 671.099991, 1557626632.264171, 4.000000, 4.000000, 2.000000, 4.000000, 4.000000
1.000000, 0.000000, 4237.436035, 4367.692383, 4072.307617, 4030.769043, 4056.410156, 500.000000, 8143.000000, 8356.000000, 0.000000, 0.000000, 0.000000, 1.000000, 678.899994, 1557626632.271971, 4.000000, 4.000000, 2.000000, 4.000000, 4.000000
2.000000, 0.000000, 4248.205078, 4358.461426, 4070.256348, 4048.205078, 4061.025635, 16185.000000, 8150.000000, 8355.000000, 0.000000, 0.000000, 0.000000, 1.000000, 686.599991, 1557626632.279671, 4.000000, 4.000000, 2.000000, 4.000000, 4.000000
3.000000, 0.000000, 4231.794922, 4351.794922, 4079.487061, 4052.820313, 4035.897217, 500.000000, 8142.000000, 8355.000000, 0.000000, 0.000000, 0.000000, 1.000000, 694.499985, 1557626632.287571, 4.000000, 4.000000, 2.000000, 4.000000, 4.000000
4.000000, 0.000000, 4225.641113, 4357.435547, 4087.179443, 4042.051270, 4038.461426, 16105.000000, 8144.000000, 8360.000000, 0.000000, 0.000000, 0.000000, 1.000000, 702.299988, 1557626632.295371, 4.000000, 4.000000, 2.000000, 4.000000, 4.000000
5.000000, 0.000000, 4245.127930, 4361.538574, 4076.410156, 4034.871582, 4051.281982, 500.000000, 8149.000000, 8352.000000, 0.000000, 0.000000, 0.000000, 1.000000, 710.099991, 1557626632.303171, 4.000000, 4.000000, 2.000000, 4.000000, 4.000000
6.000000, 0.000000, 4240.000000, 4356.922852, 4070.769043, 4037.948730, 4035.384521, 187.000000, 8145.000000, 8359.000000, 0.000000, 0.000000, 0.000000, 1.000000, 717.899994, 1557626632.310971, 4.000000, 4.000000, 2.000000, 4.000000, 4.000000
7.000000, 0.000000, 4228.717773, 4355.384277, 4076.923096, 4049.230713, 4031.794678, 500.000000, 8148.000000, 8357.000000, 0.000000, 0.000000, 0.000000, 1.000000, 725.699982, 1557626632.318771, 4.000000, 4.000000, 2.000000, 4.000000, 4.000000
8.000000, 0.000000, 4245.641113, 4354.871582, 4073.845947, 4058.461426, 4057.948730, 500.000000, 8151.000000, 8358.000000, 0.000000, 0.000000, 0.000000, 1.000000, 733.699982, 1557626632.326771, 4.000000, 4.000000, 2.000000, 4.000000, 4.000000
9.000000, 0.000000, 4253.333008, 4353.846191, 4065.640869, 4041.538330, 4054.871582, 286.000000, 8151.000000, 8350.000000, 0.000000, 0.000000, 0.000000, 1.000000, 741.399994, 1557626632.334471, 4.000000, 4.000000, 2.000000, 4.000000, 4.000000
10.000000, 0.000000, 4243.589844, 4365.127930, 4060.000000, 4018.461426, 4019.487061, 500.000000, 8156.000000, 8354.000000, 0.000000, 0.000000, 0.000000, 1.000000, 749.199982, 1557626632.342271, 4.000000, 4.000000, 2.000000, 4.000000, 4.000000
11.000000, 0.000000, 4238.974121, 4366.666504, 4057.948730, 4022.563965, 4022.051270, 16174.000000, 8143.000000, 8357.000000, 0.000000, 0.000000, 0.000000, 1.000000, 757.199982, 1557626632.350271, 4.000000, 4.000000, 2.000000, 4.000000, 4.000000
12.000000, 0.000000, 4242.563965, 4347.179199, 4062.563965, 4046.153809, 4044.615234, 500.000000, 8147.000000, 8350.000000, 0.000000, 0.000000, 0.000000, 1.000000, 765.199982, 1557626632.358271, 4.000000, 4.000000, 2.000000, 4.000000, 4.000000
13.000000, 0.000000, 4249.743652, 4348.205078, 4064.102539, 4049.743408, 4047.179443, 500.000000, 8151.000000, 8348.000000, 0.000000, 0.000000, 0.000000, 1.000000, 773.099991, 1557626632.366171, 4.000000, 4.000000, 2.000000, 4.000000, 4.000000
14.000000, 0.000000, 4247.179199, 4366.153809, 4060.512695, 4034.358887, 4037.435791, 450.000000, 8157.000000, 8340.000000, 0.000000, 0.000000, 0.000000, 1.000000, 781.099976, 1557626632.374171, 4.000000, 4.000000, 2.000000, 4.000000, 4.000000
15.000000, 0.000000, 4232.307617, 4356.410156, 4067.692139, 4035.897217, 4022.563965, 16174.000000, 8156.000000, 8345.000000, 0.000000, 0.000000, 0.000000, 1.000000, 789.099976, 1557626632.382171, 4.000000, 4.000000, 2.000000, 4.000000, 4.000000
16.000000, 0.000000, 4227.692383, 4338.974121, 4083.076904, 4042.563965, 4031.794678, 0.000000, 8146.000000, 8349.000000, 0.000000, 0.000000, 0.000000, 1.000000, 797.099976, 1557626632.390171, 4.000000, 4.000000, 2.000000, 4.000000, 4.000000
17.000000, 0.000000, 4230.769043, 4343.589844, 4085.128174, 4046.153809, 4054.358887, 0.000000, 8147.000000, 8350.000000, 0.000000, 0.000000, 0.000000, 1.000000, 804.799988, 1557626632.397871, 4.000000, 4.000000, 2.000000, 4.000000, 4.000000
18.000000, 0.000000, 4226.153809, 4354.358887, 4074.358887, 4053.845947, 4056.923096, 0.000000, 8150.000000, 8339.000000, 0.000000, 0.000000, 0.000000, 1.000000, 812.599976, 1557626632.405671, 4.000000, 4.000000, 2.000000, 4.000000, 4.000000
19.000000, 0.000000, 4232.820313, 4356.922852, 4075.897217, 4054.358887, 4048.717773, 0.000000, 8144.000000, 8338.000000, 0.000000, 0.000000, 0.000000, 1.000000, 820.399994, 1557626632.413471, 4.000000, 4.000000, 2.000000, 4.000000, 4.000000
20.000000, 0.000000, 4251.794922, 4356.922852, 4076.923096, 4050.769043, 4043.589600, 0.000000, 8149.000000, 8347.000000, 0.000000, 0.000000, 0.000000, 1.000000, 828.199982, 1557626632.421271, 4.000000, 4.000000, 2.000000, 4.000000, 4.000000
21.000000, 0.000000, 4250.769043, 4360.512695, 4068.717773, 4052.307617, 4033.333252, 0.000000, 8144.000000, 8340.000000, 0.000000, 0.000000, 0.000000, 1.000000, 836.000000, 1557626632.429071, 4.000000, 4.000000, 2.000000, 4.000000, 4.000000
22.000000, 0.000000, 4246.666504, 4365.127930, 4070.769043, 4053.333252, 4029.230713, 0.000000, 8149.000000, 8338.000000, 0.000000, 0.000000, 0.000000, 1.000000, 844.000000, 1557626632.437071, 4.000000, 4.000000, 2.000000, 4.000000, 4.000000
23.000000, 0.000000, 4255.897461, 4369.743652, 4080.512695, 4056.923096, 4048.205078, 0.000000, 8144.000000, 8347.000000, 0.000000, 0.000000, 0.000000, 1.000000, 852.000000, 1557626632.445071, 4.000000, 4.000000, 2.000000, 4.000000, 4.000000
24.000000, 0.000000, 4264.102539, 4375.897461, 4083.076904, 4063.589600, 4065.128174, 0.000000, 8144.000000, 8347.000000, 0.000000, 0.000000, 0.000000, 1.000000, 860.000000, 1557626632.453071, 4.000000, 4.000000, 2.000000, 4.000000, 4.000000
25.000000, 0.000000, 4267.179199, 4375.897461, 4078.461426, 4059.487061, 4064.615234, 0.000000, 8145.000000, 8344.000000, 0.000000, 0.000000, 0.000000, 1.000000, 867.699982, 1557626632.460771, 4.000000, 4.000000, 2.000000, 4.000000, 4.000000
26.000000, 0.000000, 4263.076660, 4363.076660, 4076.410156, 4063.076904, 4057.435791, 0.000000, 8145.000000, 8344.000000, 0.000000, 0.000000, 0.000000, 1.000000, 875.500000, 1557626632.468571, 4.000000, 4.000000, 2.000000, 4.000000, 4.000000
27.000000, 0.000000, 4261.538574, 4366.153809, 4085.640869, 4078.974365, 4066.153809, 0.000000, 8151.000000, 8344.000000, 0.000000, 0.000000, 0.000000, 1.000000, 883.299988, 1557626632.476371, 4.000000, 4.000000, 2.000000, 4.000000, 4.000000
28.000000, 0.000000, 4275.897461, 4385.641113, 4084.102539, 4074.358887, 4079.487061, 0.000000, 8141.000000, 8346.000000, 0.000000, 0.000000, 0.000000, 1.000000, 891.199982, 1557626632.484271, 4.000000, 4.000000, 2.000000, 4.000000, 4.000000
29.000000, 0.000000, 4283.589844, 4384.615234, 4070.769043, 4062.051270, 4064.102539, 0.000000, 8141.000000, 8355.000000, 0.000000, 0.000000, 0.000000, 1.000000, 899.099976, 1557626632.492171, 4.000000, 4.000000, 2.000000, 4.000000, 4.000000
30.000000, 0.000000, 4268.205078, 4365.641113, 4076.923096, 4057.435791, 4049.230713, 0.000000, 8139.000000, 8357.000000, 0.000000, 0.000000, 0.000000, 1.000000, 907.099976, 1557626632.500171, 4.000000, 4.000000, 2.000000, 4.000000, 4.000000
31.000000, 0.000000, 4258.461426, 4367.692383, 4093.333252, 4055.897217, 4062.563965, 0.000000, 8138.000000, 8347.000000, 0.000000, 0.000000, 0.000000, 1.000000, 915.099976, 1557626632.508171, 4.000000, 4.000000, 2.000000, 4.000000, 4.000000
32.000000, 0.000000, 4272.307617, 4382.563965, 4087.692139, 4071.281982, 4076.410156, 0.000000, 8142.000000, 8348.000000, 0.000000, 0.000000, 0.000000, 1.000000, 923.099976, 1557626632.516171, 4.000000, 4.000000, 2.000000, 4.000000, 4.000000
33.000000, 0.000000, 4281.538574, 4376.922852, 4075.384521, 4085.640869, 4078.461426, 0.000000, 8144.000000, 8356.000000, 0.000000, 0.000000, 0.000000, 1.000000, 930.799988, 1557626632.523871, 4.000000, 4.000000, 2.000000, 4.000000, 4.000000
34.000000, 0.000000, 4277.948730, 4365.127930, 4078.461426, 4065.640869, 4076.923096, 0.000000, 8142.000000, 8363.000000, 0.000000, 0.000000, 0.000000, 1.000000, 938.599976, 1557626632.531671, 4.000000, 4.000000, 2.000000, 4.000000, 4.000000
35.000000, 0.000000, 4276.410156, 4363.076660, 4075.897217, 4048.717773, 4066.153809, 0.000000, 8138.000000, 8349.000000, 0.000000, 0.000000, 0.000000, 1.000000, 946.399994, 1557626632.539471, 4.000000, 4.000000, 2.000000, 4.000000, 4.000000
36.000000, 0.000000, 4279.487305, 4361.025391, 4070.256348, 4069.743408, 4061.538330, 0.000000, 8143.000000, 8363.000000, 0.000000, 0.000000, 0.000000, 1.000000, 954.199982, 1557626632.547271, 4.000000, 4.000000, 2.000000, 4.000000, 4.000000
37.000000, 0.000000, 4284.102539, 4360.000000, 4080.000000, 4089.230713, 4066.666504, 0.000000, 8142.000000, 8355.000000, 0.000000, 0.000000, 0.000000, 1.000000, 962.099976, 1557626632.555171, 4.000000, 4.000000, 2.000000, 4.000000, 4.000000
38.000000, 0.000000, 4284.615234, 4365.127930, 4088.205078, 4066.666504, 4063.076904, 0.000000, 8137.000000, 8355.000000, 0.000000, 0.000000, 0.000000, 1.000000, 970.099976, 1557626632.563171, 4.000000, 4.000000, 2.000000, 4.000000, 4.000000
39.000000, 0.000000, 4282.051270, 4368.205078, 4076.410156, 4047.692139, 4046.153809, 0.000000, 8145.000000, 8354.000000, 0.000000, 0.000000, 0.000000, 1.000000, 978.099976, 1557626632.571171, 4.000000, 4.000000, 2.000000, 4.000000, 4.000000
40.000000, 0.000000, 4280.512695, 4370.256348, 4065.128174, 4065.640869, 4048.205078, 0.000000, 8142.000000, 8359.000000, 0.000000, 0.000000, 0.000000, 1.000000, 986.000000, 1557626632.579071, 4.000000, 4.000000, 2.000000, 4.000000, 4.000000
41.000000, 0.000000, 4275.384277, 4372.307617, 4077.948730, 4074.358887, 4079.487061, 0.000000, 8144.000000, 8359.000000, 0.000000, 0.000000, 0.000000, 1.000000, 994.000000, 1557626632.587071, 4.000000, 4.000000, 2.000000, 4.000000, 4.000000
42.000000, 0.000000, 4265.641113, 4364.102539, 4086.153809, 4050.256348, 4090.769043, 0.000000, 8139.000000, 8362.000000, 0.000000, 0.000000, 0.000000, 2.000000, 1.799988, 1557626632.594871, 4.000000, 4.000000, 2.000000, 4.000000, 4.000000
43.000000, 0.000000, 4260.000000, 4367.692383, 4070.256348, 4033.845947, 4064.615234, 0.000000, 8143.000000, 8361.000000, 0.000000, 0.000000, 0.000000, 2.000000, 9.599976, 1557626632.602671, 4.000000, 4.000000, 2.000000, 4.000000, 4.000000
44.000000, 0.000000, 4258.461426, 4376.410156, 4069.230713, 4050.769043, 4041.538330, 0.000000, 8147.000000, 8352.000000, 0.000000, 0.000000, 0.000000, 2.000000, 17.299988, 1557626632.610371, 4.000000, 4.000000, 2.000000, 4.000000, 4.000000
45.000000, 0.000000, 4248.717773, 4367.179199, 4097.436035, 4060.512695, 4051.281982, 0.000000, 8147.000000, 8355.000000, 0.000000, 0.000000, 0.000000, 2.000000, 25.099976, 1557626632.618171, 4.000000, 4.000000, 2.000000, 4.000000, 4.000000
46.000000, 0.000000, 4246.153809, 4368.717773, 4107.179199, 4052.820313, 4067.692139, 0.000000, 8144.000000, 8365.000000, 0.000000, 0.000000, 0.000000, 2.000000, 33.099976, 1557626632.626171, 4.000000, 4.000000, 2.000000, 4.000000, 4.000000
47.000000, 0.000000, 4256.410156, 4384.615234, 4096.410156, 4060.000000, 4074.358887, 0.000000, 8145.000000, 8360.000000, 0.000000, 0.000000, 0.000000, 2.000000, 41.099976, 1557626632.634171, 4.000000, 4.000000, 2.000000, 4.000000, 4.000000
48.000000, 0.000000, 4259.487305, 4381.025391, 4099.487305, 4077.435791, 4083.589600, 0.000000, 8148.000000, 8351.000000, 0.000000, 0.000000, 0.000000, 2.000000, 49.000000, 1557626632.642071, 4.000000, 4.000000, 2.000000, 4.000000, 4.000000
49.000000, 0.000000, 4263.076660, 4371.794922, 4103.589844, 4080.512695, 4094.871582, 0.000000, 8147.000000, 8346.000000, 0.000000, 0.000000, 0.000000, 2.000000, 57.000000, 1557626632.650071, 4.000000, 4.000000, 2.000000, 4.000000, 4.000000
50.000000, 0.000000, 4273.846191, 4374.871582, 4092.820313, 4075.384521, 4097.948730, 0.000000, 8147.000000, 8353.000000, 0.000000, 0.000000, 0.000000, 2.000000, 64.799988, 1557626632.657871, 4.000000, 4.000000, 2.000000, 4.000000, 4.000000
51.000000, 0.000000, 4282.051270, 4376.410156, 4087.692139, 4078.974365, 4075.897217, 0.000000, 8146.000000, 8339.000000, 0.000000, 0.000000, 0.000000, 2.000000, 72.599976, 1557626632.665671, 4.000000, 4.000000, 2.000000, 4.000000, 4.000000
52.000000, 0.000000, 4273.333008, 4372.307617, 4094.358887, 4075.384521, 4069.230713, 0.000000, 8149.000000, 8346.000000, 0.000000, 0.000000, 0.000000, 2.000000, 80.299988, 1557626632.673371, 4.000000, 4.000000, 2.000000, 4.000000, 4.000000
53.000000, 0.000000, 4261.538574, 4367.179199, 4091.794678, 4071.794678, 4092.307617, 0.000000, 8155.000000, 8349.000000, 0.000000, 0.000000, 0.000000, 2.000000, 88.099976, 1557626632.681171, 4.000000, 4.000000, 2.000000, 4.000000, 4.000000
54.000000, 0.000000, 4271.281738, 4368.205078, 4085.128174, 4077.948730, 4093.333252, 0.000000, 8154.000000, 8340.000000, 0.000000, 0.000000, 0.000000, 2.000000, 96.099976, 1557626632.689171, 4.000000, 4.000000, 2.000000, 4.000000, 4.000000
55.000000, 0.000000, 4274.358887, 4383.076660, 4087.692139, 4068.205078, 4079.487061, 0.000000, 8147.000000, 8340.000000, 0.000000, 0.000000, 0.000000, 2.000000, 104.099976, 1557626632.697171, 4.000000, 4.000000, 2.000000, 4.000000, 4.000000
56.000000, 0.000000, 4263.076660, 4393.333008, 4083.076904, 4050.769043, 4080.000000, 0.000000, 8142.000000, 8340.000000, 0.000000, 0.000000, 0.000000, 2.000000, 112.000000, 1557626632.705071, 4.000000, 4.000000, 2.000000, 4.000000, 4.000000
57.000000, 0.000000, 4267.692383, 4385.641113, 4078.461426, 4057.948730, 4074.358887, 0.000000, 8144.000000, 8328.000000, 0.000000, 0.000000, 0.000000, 2.000000, 120.000000, 1557626632.713071, 4.000000, 4.000000, 2.000000, 4.000000, 4.000000
58.000000, 0.000000, 4273.846191, 4384.102539, 4087.179443, 4071.794678, 4068.205078, 0.000000, 8150.000000, 8326.000000, 0.000000, 0.000000, 0.000000, 2.000000, 127.799988, 1557626632.720871, 4.000000, 4.000000, 2.000000, 4.000000, 4.000000
59.000000, 0.000000, 4251.794922, 4381.025391, 4084.102539, 4056.410156, 4079.487061, 0.000000, 8145.000000, 8339.000000, 0.000000, 0.000000, 0.000000, 2.000000, 135.599976, 1557626632.728671, 4.000000, 4.000000, 2.000000, 4.000000, 4.000000
60.000000, 0.000000, 4240.000000, 4356.410156, 4070.256348, 4042.051270, 4064.102539, 0.000000, 8141.000000, 8334.000000, 0.000000, 0.000000, 0.000000, 2.000000, 143.299988, 1557626632.736371, 4.000000, 4.000000, 2.000000, 4.000000, 4.000000
61.000000, 0.000000, 4255.897461, 4339.487305, 4065.128174, 4057.435791, 4038.461426, 0.000000, 8147.000000, 8326.000000, 0.000000, 0.000000, 0.000000, 2.000000, 151.099976, 1557626632.744171, 4.000000, 4.000000, 2.000000, 4.000000, 4.000000
62.000000, 0.000000, 4255.897461, 4343.589844, 4061.025635, 4058.974365, 4050.769043, 0.000000, 8149.000000, 8324.000000, 0.000000, 0.000000, 0.000000, 2.000000, 159.099976, 1557626632.752171, 4.000000, 4.000000, 2.000000, 4.000000, 4.000000
63.000000, 0.000000, 4240.512695, 4357.948730, 4060.000000, 4044.102539, 4072.820313, 0.000000, 8146.000000, 8336.000000, 0.000000, 0.000000, 0.000000, 2.000000, 167.099976, 1557626632.760171, 4.000000, 4.000000, 2.000000, 4.000000, 4.000000
64.000000, 0.000000, 4240.512695, 4366.666504, 4076.923096, 4050.769043, 4058.974365, 500.000000, 8150.000000, 8338.000000, 0.000000, 0.000000, 0.000000, 2.000000, 175.000000, 1557626632.768071, 4.000000, 4.000000, 2.000000, 4.000000, 4.000000
65.000000, 0.000000, 4256.922852, 4366.153809, 4084.102539, 4065.640869, 4041.025635, 500.000000, 8149.000000, 8334.000000, 0.000000, 0.000000, 0.000000, 2.000000, 183.000000, 1557626632.776071, 4.000000, 4.000000, 2.000000, 4.000000, 4.000000
66.000000, 0.000000, 4267.692383, 4368.205078, 4068.717773, 4056.410156, 4053.845947, 16179.000000, 8145.000000, 8343.000000, 0.000000, 0.000000, 0.000000, 2.000000, 191.000000, 1557626632.784071, 4.000000, 4.000000, 2.000000, 4.000000, 4.000000
67.000000, 0.000000, 4257.948730, 4375.897461, 4063.589600, 4038.974365, 4072.307617, 500.000000, 8147.000000, 8338.000000, 0.000000, 0.000000, 0.000000, 2.000000, 198.799988, 1557626632.791871, 4.000000, 4.000000, 2.000000, 4.000000, 4.000000
68.000000, 0.000000, 4253.333008, 4381.538574, 4066.153809, 4049.230713, 4079.487061, 16101.000000, 8141.000000, 8339.000000, 0.000000, 0.000000, 0.000000, 2.000000, 206.500000, 1557626632.799571, 4.000000, 4.000000, 2.000000, 4.000000, 4.000000
69.000000, 0.000000, 4271.794922, 4382.051270, 4066.666504, 4062.563965, 4075.384521, 500.000000, 8139.000000, 8340.000000, 0.000000, 0.000000, 0.000000, 2.000000, 214.299988, 1557626632.807371, 4.000000, 4.000000, 2.000000, 4.000000, 4.000000
70.000000, 0.000000, 4281.538574, 4385.641113, 4070.769043, 4053.845947, 4063.076904, 191.000000, 8145.000000, 8337.000000, 0.000000, 0.000000, 0.000000, 2.000000, 222.099976, 1557626632.815171, 4.000000, 4.000000, 2.000000, 4.000000, 4.000000
71.000000, 0.000000, 4266.666504, 4382.563965, 4076.923096, 4052.307617, 4058.461426, 500.000000, 8146.000000, 8335.000000, 0.000000, 0.000000, 0.000000, 2.000000, 230.099976, 1557626632.823171, 4.000000, 4.000000, 2.000000, 4.000000, 4.000000
72.000000, 0.000000, 4257.948730, 4375.384277, 4080.512695, 4059.487061, 4067.692139, 500.000000, 8145.000000, 8350.000000, 0.000000, 0.000000, 0.000000, 2.000000, 238.000000, 1557626632.831071, 4.000000, 4.000000, 2.000000, 4.000000, 4.000000
73.000000, 0.000000, 4267.692383, 4378.974121, 4076.410156, 4052.820313, 4056.923096, 291.000000, 8141.000000, 8346.000000, 0.000000, 0.000000, 0.000000, 2.000000, 246.000000, 1557626632.839071, 4.000000, 4.000000, 2.000000, 4.000000, 4.000000
74.000000, 0.000000, 4272.307617, 4386.153809, 4073.333252, 4039.487061, 4045.640869, 500.000000, 8149.000000, 8338.000000, 0.000000, 0.000000, 0.000000, 2.000000, 254.000000, 1557626632.847071, 4.000000, 4.000000, 2.000000, 4.000000, 4.000000
75.000000, 0.000000, 4266.666504, 4377.948730, 4085.128174, 4048.717773, 4071.281982, 16171.000000, 8145.000000, 8344.000000, 0.000000, 0.000000, 0.000000, 2.000000, 261.799988, 1557626632.854871, 4.000000, 4.000000, 2.000000, 4.000000, 4.000000
76.000000, 0.000000, 4260.512695, 4365.127930, 4092.820313, 4062.051270, 4083.076904, 500.000000, 8142.000000, 8351.000000, 0.000000, 0.000000, 0.000000, 2.000000, 269.500000, 1557626632.862571, 4.000000, 4.000000, 2.000000, 4.000000, 4.000000
77.000000, 0.000000, 4256.410156, 4368.717773, 4074.871582, 4047.179443, 4065.640869, 500.000000, 8144.000000, 8348.000000, 0.000000, 0.000000, 0.000000, 2.000000, 277.299988, 1557626632.870371, 4.000000, 4.000000, 2.000000, 4.000000, 4.000000
78.000000, 0.000000, 4240.000000, 4368.717773, 4061.538330, 4017.435791, 4065.640869, 450.000000, 8150.000000, 8341.000000, 0.000000, 0.000000, 0.000000, 2.000000, 285.200012, 1557626632.878271, 4.000000, 4.000000, 2.000000, 4.000000, 4.000000
79.000000, 0.000000, 4228.205078, 4353.333008, 4064.102539, 3994.871582, 4064.615234, 16171.000000, 8144.000000, 8337.000000, 0.000000, 0.000000, 0.000000, 2.000000, 293.099976, 1557626632.886171, 4.000000, 4.000000, 2.000000, 4.000000, 4.000000
80.000000, 0.000000, 4253.333008, 4363.076660, 4071.794678, 3992.820313, 4054.871582, 450.000000, 8141.000000, 8343.000000, 0.000000, 0.000000, 0.000000, 2.000000, 301.099976, 1557626632.894171, 4.000000, 4.000000, 2.000000, 4.000000, 4.000000
81.000000, 0.000000, 4277.948730, 4386.666504, 4086.666504, 4002.051270, 4074.358887, 450.000000, 8143.000000, 8339.000000, 0.000000, 0.000000, 0.000000, 2.000000, 309.099976, 1557626632.902171, 4.000000, 4.000000, 2.000000, 4.000000, 4.000000
82.000000, 0.000000, 4274.871582, 4377.435547, 4090.256348, 4002.051270, 4087.692139, 450.000000, 8144.000000, 8344.000000, 0.000000, 0.000000, 0.000000, 2.000000, 317.099976, 1557626632.910171, 4.000000, 4.000000, 2.000000, 4.000000, 4.000000
83.000000, 0.000000, 4273.846191, 4366.153809, 4078.461426, 4000.512695, 4058.974365, 16171.000000, 8147.000000, 8335.000000, 0.000000, 0.000000, 0.000000, 2.000000, 324.799988, 1557626632.917871, 4.000000, 4.000000, 2.000000, 4.000000, 4.000000
84.000000, 0.000000, 4271.281738, 4377.948730, 4084.102539, 4002.051270, 4044.615234, 450.000000, 8154.000000, 8334.000000, 0.000000, 0.000000, 0.000000, 2.000000, 332.599976, 1557626632.925671, 4.000000, 4.000000, 2.000000, 4.000000, 4.000000
85.000000, 0.000000, 4263.589844, 4381.538574, 4099.487305, 3997.435791, 4074.358887, 450.000000, 8150.000000, 8342.000000, 0.000000, 0.000000, 0.000000, 2.000000, 340.399963, 1557626632.933471, 4.000000, 4.000000, 2.000000, 4.000000, 4.000000
86.000000, 0.000000, 4274.871582, 4382.563965, 4086.153809, 3984.102539, 4085.128174, 450.000000, 8151.000000, 8348.000000, 0.000000, 0.000000, 0.000000, 2.000000, 348.200012, 1557626632.941271, 4.000000, 4.000000, 2.000000, 4.000000, 4.000000
87.000000, 0.000000, 4287.179199, 4389.743652, 4058.974365, 3978.974365, 4054.871582, 16171.000000, 8155.000000, 8334.000000, 0.000000, 0.000000, 0.000000, 2.000000, 356.099976, 1557626632.949171, 4.000000, 4.000000, 2.000000, 4.000000, 4.000000
88.000000, 0.000000, 4277.948730, 4389.743652, 4060.000000, 3968.717773, 4040.512695, 450.000000, 8161.000000, 8332.000000, 0.000000, 0.000000, 0.000000, 2.000000, 364.000000, 1557626632.957071, 4.000000, 4.000000, 2.000000, 4.000000, 4.000000
89.000000, 0.000000, 4282.051270, 4393.846191, 4079.487061, 3955.897461, 4059.487061, 450.000000, 8153.000000, 8340.000000, 0.000000, 0.000000, 0.000000, 2.000000, 372.000000, 1557626632.965071, 4.000000, 4.000000, 2.000000, 4.000000, 4.000000
90.000000, 0.000000, 4295.384277, 4401.025391, 4085.128174, 3964.102539, 4062.563965, 450.000000, 8159.000000, 8341.000000, 0.000000, 0.000000, 0.000000, 2.000000, 380.000000, 1557626632.973071, 4.000000, 4.000000, 2.000000, 4.000000, 4.000000
91.000000, 0.000000, 4289.743652, 4394.871582, 4074.871582, 3965.640869, 4049.743408, 16171.000000, 8155.000000, 8329.000000, 0.000000, 0.000000, 0.000000, 2.000000, 387.899963, 1557626632.980971, 4.000000, 4.000000, 2.000000, 4.000000, 4.000000
92.000000, 0.000000, 4276.410156, 4395.384277, 4076.410156, 3960.000000, 4061.538330, 450.000000, 8153.000000, 8330.000000, 0.000000, 0.000000, 0.000000, 2.000000, 395.700012, 1557626632.988771, 4.000000, 4.000000, 2.000000, 4.000000, 4.000000
93.000000, 0.000000, 4268.717773, 4403.076660, 4088.717773, 3957.435791, 4066.153809, 450.000000, 8160.000000, 8333.000000, 0.000000, 0.000000, 0.000000, 2.000000, 403.500000, 1557626632.996571, 4.000000, 4.000000, 2.000000, 4.000000, 4.000000
94.000000, 0.000000, 4266.153809, 4389.743652, 4088.205078, 3951.794678, 4040.512695, 450.000000, 8158.000000, 8333.000000, 0.000000, 0.000000, 0.000000, 2.000000, 411.299988, 1557626633.004371, 4.000000, 4.000000, 2.000000, 4.000000, 4.000000
95.000000, 0.000000, 4265.641113, 4378.461426, 4087.179443, 3963.076904, 4029.230713, 16171.000000, 8156.000000, 8337.000000, 0.000000, 0.000000, 0.000000, 2.000000, 419.099976, 1557626633.012171, 4.000000, 4.000000, 2.000000, 4.000000, 4.000000
96.000000, 0.000000, 4267.692383, 4387.179199, 4087.179443, 3974.871582, 4044.102539, 450.000000, 8154.000000, 8338.000000, 0.000000, 0.000000, 0.000000, 2.000000, 427.099976, 1557626633.020171, 4.000000, 4.000000, 2.000000, 4.000000, 4.000000
97.000000, 0.000000, 4270.769043, 4384.615234, 4072.307617, 3964.615234, 4056.410156, 450.000000, 8151.000000, 8335.000000, 0.000000, 0.000000, 0.000000, 2.000000, 435.099976, 1557626633.028171, 4.000000, 4.000000, 2.000000, 4.000000, 4.000000
98.000000, 0.000000, 4262.563965, 4371.794922, 4066.153809, 3961.025635, 4039.487061, 450.000000, 8151.000000, 8342.000000, 0.000000, 0.000000, 0.000000, 2.000000, 443.099976, 1557626633.036171, 4.000000, 4.000000, 2.000000, 4.000000, 4.000000
99.000000, 0.000000, 4248.205078, 4382.051270, 4086.153809, 3973.333252, 4016.923096, 16171.000000, 8149.000000, 8354.000000, 0.000000, 0.000000, 0.000000, 2.000000, 451.000000, 1557626633.044071, 4.000000, 4.000000, 2.000000, 4.000000, 4.000000
100.000000, 0.000000, 4254.358887, 4401.025391, 4092.307617, 3974.871582, 4033.333252, 450.000000, 8152.000000, 8343.000000, 0.000000, 0.000000, 0.000000, 2.000000, 458.799988, 1557626633.051871, 4.000000, 4.000000, 2.000000, 4.000000, 4.000000
101.000000, 0.000000, 4264.615234, 4394.358887, 4071.281982, 3968.717773, 4062.563965, 450.000000, 8149.000000, 8343.000000, 0.000000, 0.000000, 0.000000, 2.000000, 466.599976, 1557626633.059671, 4.000000, 4.000000, 2.000000, 4.000000, 4.000000
102.000000, 0.000000, 4251.794922, 4384.102539, 4064.102539, 3964.615234, 4038.461426, 450.000000, 8148.000000, 8350.000000, 0.000000, 0.000000, 0.000000, 2.000000, 474.399963, 1557626633.067471, 4.000000, 4.000000, 2.000000, 4.000000, 4.000000
103.000000, 0.000000, 4240.000000, 4382.051270, 4077.948730, 3962.563965, 4018.974365, 16171.000000, 8149.000000, 8353.000000, 0.000000, 0.000000, 0.000000, 2.000000, 482.099976, 1557626633.075171, 4.000000, 4.000000, 2.000000, 4.000000, 4.000000
104.000000, 0.000000, 4234.871582, 4373.846191, 4095.384521, 3962.563965, 4055.897217, 450.000000, 8151.000000, 8344.000000, 0.000000, 0.000000, 0.000000, 2.000000, 490.099976, 1557626633.083171, 4.000000, 4.000000, 2.000000, 4.000000, 4.000000
105.000000, 0.000000, 4224.102539, 4378.461426, 4104.102539, 3958.461426, 4053.333252, 450.000000, 8147.000000, 8349.000000, 0.000000, 0.000000, 0.000000, 2.000000, 498.099976, 1557626633.091171, 4.000000, 4.000000, 2.000000, 4.000000, 4.000000
106.000000, 0.000000, 4238.974121, 4400.000000, 4094.871582, 3956.410156, 4027.179443, 450.000000, 8147.000000, 8357.000000, 0.000000, 0.000000, 0.000000, 2.000000, 506.099976, 1557626633.099171, 4.000000, 4.000000, 2.000000, 4.000000, 4.000000
107.000000, 0.000000, 4261.025391, 4398.974121, 4092.307617, 3972.820313, 4063.589600, 16171.000000, 8139.000000, 8351.000000, 0.000000, 0.000000, 0.000000, 2.000000, 514.000000, 1557626633.107071, 4.000000, 4.000000, 2.000000, 4.000000, 4.000000
108.000000, 0.000000, 4252.307617, 4377.948730, 4110.769043, 3983.589600, 4094.871582, 450.000000, 8136.000000, 8346.000000, 0.000000, 0.000000, 0.000000, 2.000000, 521.999988, 1557626633.115071, 4.000000, 4.000000, 2.000000, 4.000000, 4.000000
109.000000, 0.000000, 4254.871582, 4383.589844, 4111.794922, 3970.769043, 4064.102539, 450.000000, 8141.000000, 8358.000000, 0.000000, 0.000000, 0.000000, 2.000000, 529.799988, 1557626633.122871, 4.000000, 4.000000, 2.000000, 4.000000, 4.000000
110.000000, 0.000000, 4270.769043, 4400.512695, 4092.307617, 3964.102539, 4040.512695, 450.000000, 8144.000000, 8351.000000, 0.000000, 0.000000, 0.000000, 2.000000, 537.599987, 1557626633.130671, 4.000000, 4.000000, 2.000000, 4.000000, 4.000000
111.000000, 0.000000, 4253.846191, 4397.948730, 4091.794678, 3972.307617, 4051.281982, 16171.000000, 8139.000000, 8357.000000, 0.000000, 0.000000, 0.000000, 2.000000, 545.299988, 1557626633.138371, 4.000000, 4.000000, 2.000000, 4.000000, 4.000000
112.000000, 0.000000, 4240.000000, 4393.333008, 4098.974121, 3978.974365, 4060.512695, 450.000000, 8141.000000, 8359.000000, 0.000000, 0.000000, 0.000000, 2.000000, 553.099987, 1557626633.146171, 4.000000, 4.000000, 2.000000, 4.000000, 4.000000
113.000000, 0.000000, 4262.563965, 4398.461426, 4089.230713, 3972.820313, 4066.153809, 450.000000, 8143.000000, 8347.000000, 0.000000, 0.000000, 0.000000, 2.000000, 561.099987, 1557626633.154171, 4.000000, 4.000000, 2.000000, 4.000000, 4.000000
114.000000, 0.000000, 4270.256348, 4400.000000, 4081.538330, 3970.769043, 4050.256348, 450.000000, 8149.000000, 8349.000000, 0.000000, 0.000000, 0.000000, 2.000000, 569.099987, 1557626633.162171, 4.000000, 4.000000, 2.000000, 4.000000, 4.000000
115.000000, 0.000000, 4258.974121, 4396.410156, 4086.153809, 3973.333252, 4041.538330, 16171.000000, 8145.000000, 8358.000000, 0.000000, 0.000000, 0.000000, 2.000000, 576.999989, 1557626633.170071, 4.000000, 4.000000, 2.000000, 4.000000, 4.000000
116.000000, 0.000000, 4265.641113, 4394.871582, 4082.051270, 3975.384521, 4065.640869, 450.000000, 8150.000000, 8352.000000, 0.000000, 0.000000, 0.000000, 2.000000, 584.799988, 1557626633.177871, 4.000000, 4.000000, 2.000000, 4.000000, 4.000000
117.000000, 0.000000, 4265.641113, 4390.256348, 4068.717773, 3972.307617, 4061.538330, 450.000000, 8151.000000, 8346.000000, 0.000000, 0.000000, 0.000000, 2.000000, 592.599991, 1557626633.185671, 4.000000, 4.000000, 2.000000, 4.000000, 4.000000
118.000000, 0.000000, 4247.692383, 4381.025391, 4078.974365, 3960.000000, 4039.487061, 450.000000, 8146.000000, 8344.000000, 0.000000, 0.000000, 0.000000, 2.000000, 600.399986, 1557626633.193471, 4.000000, 4.000000, 2.000000, 4.000000, 4.000000
119.000000, 0.000000, 4248.717773, 4386.153809, 4101.538574, 3958.974365, 4052.820313, 16171.000000, 8144.000000, 8349.000000, 0.000000, 0.000000, 0.000000, 2.000000, 608.099991, 1557626633.201171, 4.000000, 4.000000, 2.000000, 4.000000, 4.000000
120.000000, 0.000000, 4269.743652, 4410.256348, 4108.717773, 3967.692139, 4087.692139, 450.000000, 8150.000000, 8352.000000, 0.000000, 0.000000, 0.000000, 2.000000, 616.099991, 1557626633.209171, 4.000000, 4.000000, 2.000000, 4.000000, 4.000000
121.000000, 0.000000, 4266.153809, 4409.743652, 4109.743652, 3969.743408, 4096.410156, 450.000000, 8150.000000, 8343.000000, 0.000000, 0.000000, 0.000000, 2.000000, 624.099991, 1557626633.217171, 4.000000, 4.000000, 2.000000, 4.000000, 4.000000
122.000000, 0.000000, 4255.384277, 4387.179199, 4109.743652, 3973.333252, 4080.512695, 450.000000, 8148.000000, 8344.000000, 0.000000, 0.000000, 0.000000, 2.000000, 631.999985, 1557626633.225071, 4.000000, 4.000000, 2.000000, 4.000000, 4.000000
123.000000, 0.000000, 4267.179199, 4398.974121, 4099.487305, 3973.333252, 4074.358887, 16171.000000, 8148.000000, 8335.000000, 0.000000, 0.000000, 0.000000, 2.000000, 639.999985, 1557626633.233071, 4.000000, 4.000000, 2.000000, 4.000000, 4.000000
124.000000, 0.000000, 4267.692383, 4418.974121, 4084.615234, 3956.410156, 4069.743408, 450.000000, 8146.000000, 8339.000000, 0.000000, 0.000000, 0.000000, 2.000000, 647.999985, 1557626633.241071, 4.000000, 4.000000, 2.000000, 4.000000, 4.000000
125.000000, 0.000000, 4247.179199, 4403.076660, 4084.102539, 3957.948730, 4049.230713, 450.000000, 8141.000000, 8343.000000, 0.000000, 0.000000, 0.000000, 2.000000, 655.799988, 1557626633.248871, 4.000000, 4.000000, 2.000000, 4.000000, 4.000000
126.000000, 0.000000, 4244.615234, 4381.538574, 4085.640869, 3975.897217, 4041.025635, 450.000000, 8146.000000, 8341.000000, 0.000000, 0.000000, 0.000000, 2.000000, 663.499985, 1557626633.256571, 4.000000, 4.000000, 2.000000, 4.000000, 4.000000
127.000000, 0.000000, 4254.358887, 4384.615234, 4073.845947, 3965.640869, 4061.538330, 16171.000000, 8138.000000, 8339.000000, 0.000000, 0.000000, 0.000000, 2.000000, 671.299988, 1557626633.264371, 4.000000, 4.000000, 2.000000, 4.000000, 4.000000
128.000000, 0.000000, 4250.256348, 4397.435547, 4069.743408, 3955.384521, 4060.000000, 500.000000, 8137.000000, 8342.000000, 0.000000, 0.000000, 0.000000, 2.000000, 679.199982, 1557626633.272271, 4.000000, 4.000000, 2.000000, 4.000000, 4.000000
0.000000, 0.000000, 4244.102539, 4404.102539, 4079.487061, 3968.717773, 4038.974365, 500.000000, 8136.000000, 8350.000000, 0.000000, 0.000000, 0.000000, 2.000000, 687.199982, 1557626633.280271, 4.000000, 4.000000, 2.000000, 4.000000, 4.000000
1.000000, 0.000000, 4243.076660, 4397.435547, 4085.128174, 3976.410156, 4052.820313, 500.000000, 8136.000000, 8338.000000, 0.000000, 0.000000, 0.000000, 2.000000, 695.099991, 1557626633.288171, 4.000000, 4.000000, 2.000000, 4.000000, 4.000000
2.000000, 0.000000, 4238.461426, 4385.127930, 4084.102539, 3969.230713, 4080.512695, 16187.000000, 8142.000000, 8323.000000, 0.000000, 0.000000, 0.000000, 2.000000, 703.099991, 1557626633.296171, 4.000000, 4.000000, 2.000000, 4.000000, 4.000000
3.000000, 0.000000, 4228.717773, 4386.153809, 4081.538330, 3968.717773, 4073.845947, 500.000000, 8136.000000, 8333.000000, 0.000000, 0.000000, 0.000000, 2.000000, 711.099991, 1557626633.304171, 4.000000, 4.000000, 2.000000, 4.000000, 4.000000
4.000000, 0.000000, 4226.153809, 4387.692383, 4072.307617, 3979.487061, 4028.717773, 16101.000000, 8127.000000, 8320.000000, 0.000000, 0.000000, 0.000000, 2.000000, 718.899994, 1557626633.311971, 4.000000, 4.000000, 2.000000, 4.000000, 4.000000
5.000000, 0.000000, 4247.692383, 4384.615234, 4059.487061, 3984.102539, 4011.794678, 500.000000, 8128.000000, 8308.000000, 0.000000, 0.000000, 0.000000, 2.000000, 726.599991, 1557626633.319671, 4.000000, 4.000000, 2.000000, 4.000000, 4.000000
6.000000, 0.000000, 4265.641113, 4394.358887, 4063.589600, 3970.256348, 4056.923096, 188.000000, 8131.000000, 8316.000000, 0.000000, 0.000000, 0.000000, 2.000000, 734.399994, 1557626633.327471, 4.000000, 4.000000, 2.000000, 4.000000, 4.000000
7.000000, 0.000000, 4249.743652, 4407.179199, 4084.615234, 3961.538330, 4093.845947, 500.000000, 8131.000000, 8321.000000, 0.000000, 0.000000, 0.000000, 2.000000, 742.199982, 1557626633.335271, 4.000000, 4.000000, 2.000000, 4.000000, 4.000000
8.000000, 0.000000, 4244.102539, 4390.769043, 4084.615234, 3974.871582, 4077.948730, 500.000000, 8120.000000, 8312.000000, 0.000000, 0.000000, 0.000000, 2.000000, 750.199982, 1557626633.343271, 4.000000, 4.000000, 2.000000, 4.000000, 4.000000
9.000000, 0.000000, 4271.281738, 4384.102539, 4068.205078, 3981.025635, 4055.384521, 303.000000, 8120.000000, 8317.000000, 0.000000, 0.000000, 0.000000, 2.000000, 758.099991, 1557626633.351171, 4.000000, 4.000000, 2.000000, 4.000000, 4.000000
10.000000, 0.000000, 4272.307617, 4408.717773, 4077.435791, 3978.974365, 4049.743408, 500.000000, 8117.000000, 8316.000000, 0.000000, 0.000000, 0.000000, 2.000000, 766.099991, 1557626633.359171, 4.000000, 4.000000, 2.000000, 4.000000, 4.000000
11.000000, 0.000000, 4242.051270, 4405.641113, 4096.922852, 3987.179443, 4055.384521, 16166.000000, 8116.000000, 8305.000000, 0.000000, 0.000000, 0.000000, 2.000000, 774.099976, 1557626633.367171, 4.000000, 4.000000, 2.000000, 4.000000, 4.000000
12.000000, 0.000000, 4246.666504, 4395.384277, 4096.922852, 3998.974365, 4069.230713, 500.000000, 8116.000000, 8310.000000, 0.000000, 0.000000, 0.000000, 2.000000, 781.899994, 1557626633.374971, 4.000000, 4.000000, 2.000000, 4.000000, 4.000000
13.000000, 0.000000, 4280.000000, 4415.384277, 4091.281982, 4001.538330, 4058.461426, 500.000000, 8114.000000, 8303.000000, 0.000000, 0.000000, 0.000000, 2.000000, 789.599976, 1557626633.382671, 4.000000, 4.000000, 2.000000, 4.000000, 4.000000
14.000000, 0.000000, 4281.025391, 4407.692383, 4093.845947, 3998.461426, 4058.461426, 450.000000, 8110.000000, 8287.000000, 0.000000, 0.000000, 0.000000, 2.000000, 797.399994, 1557626633.390471, 4.000000, 4.000000, 2.000000, 4.000000, 4.000000
15.000000, 0.000000, 4269.230469, 4376.410156, 4098.461426, 4004.615234, 4115.384277, 16166.000000, 8112.000000, 8289.000000, 0.000000, 0.000000, 0.000000, 2.000000, 805.199982, 1557626633.398271, 4.000000, 4.000000, 2.000000, 4.000000, 4.000000
16.000000, 0.000000, 4288.717773, 4388.205078, 4094.871582, 4009.230713, 4153.333008, 0.000000, 8112.000000, 8301.000000, 0.000000, 0.000000, 0.000000, 2.000000, 813.099976, 1557626633.406171, 4.000000, 4.000000, 2.000000, 4.000000, 4.000000
17.000000, 0.000000, 4308.717773, 4403.589844, 4092.820313, 3998.974365, 4116.410156, 0.000000, 8114.000000, 8305.000000, 0.000000, 0.000000, 0.000000, 2.000000, 821.000000, 1557626633.414071, 4.000000, 4.000000, 2.000000, 4.000000, 4.000000
18.000000, 0.000000, 4293.846191, 4388.205078, 4102.563965, 3998.974365, 4092.307617, 0.000000, 8117.000000, 8295.000000, 0.000000, 0.000000, 0.000000, 2.000000, 829.000000, 1557626633.422071, 4.000000, 4.000000, 2.000000, 4.000000, 4.000000
19.000000, 0.000000, 4277.948730, 4389.743652, 4103.589844, 4018.974365, 4118.461426, 0.000000, 8113.000000, 8292.000000, 0.000000, 0.000000, 0.000000, 2.000000, 837.000000, 1557626633.430071, 4.000000, 4.000000, 2.000000, 4.000000, 4.000000
20.000000, 0.000000, 4282.051270, 4392.820313, 4087.179443, 4023.076904, 4130.769043, 0.000000, 8112.000000, 8298.000000, 0.000000, 0.000000, 0.000000, 2.000000, 845.000000, 1557626633.438071, 4.000000, 4.000000, 2.000000, 4.000000, 4.000000
21.000000, 0.000000, 4286.153809, 4383.076660, 4087.692139, 4015.384521, 4136.922852, 0.000000, 8118.000000, 8299.000000, 0.000000, 0.000000, 0.000000, 2.000000, 852.699982, 1557626633.445771, 4.000000, 4.000000, 2.000000, 4.000000, 4.000000
22.000000, 0.000000, 4289.743652, 4396.922852, 4102.563965, 4019.487061, 4143.589844, 0.000000, 8122.000000, 8300.000000, 0.000000, 0.000000, 0.000000, 2.000000, 860.500000, 1557626633.453571, 4.000000, 4.000000, 2.000000, 4.000000, 4.000000
23.000000, 0.000000, 4298.974121, 4414.871582, 4097.436035, 4025.640869, 4130.256348, 0.000000, 8127.000000, 8305.000000, 0.000000, 0.000000, 0.000000, 2.000000, 868.299988, 1557626633.461371, 4.000000, 4.000000, 2.000000, 4.000000, 4.000000
24.000000, 0.000000, 4301.025391, 4404.615234, 4088.205078, 4021.025635, 4126.666504, 0.000000, 8137.000000, 8302.000000, 0.000000, 0.000000, 0.000000, 2.000000, 876.199982, 1557626633.469271, 4.000000, 4.000000, 2.000000, 4.000000, 4.000000
25.000000, 0.000000, 4293.333008, 4390.769043, 4095.384521, 4015.384521, 4140.000000, 0.000000, 8138.000000, 8309.000000, 0.000000, 0.000000, 0.000000, 2.000000, 884.099976, 1557626633.477171, 4.000000, 4.000000, 2.000000, 4.000000, 4.000000
26.000000, 0.000000, 4292.307617, 4394.358887, 4103.076660, 4023.076904, 4131.281738, 0.000000, 8137.000000, 8331.000000, 0.000000, 0.000000, 0.000000, 2.000000, 892.000000, 1557626633.485071, 4.000000, 4.000000, 2.000000, 4.000000, 4.000000
27.000000, 0.000000, 4299.487305, 4404.615234, 4108.717773, 4033.845947, 4117.436035, 0.000000, 8145.000000, 8321.000000, 0.000000, 0.000000, 0.000000, 2.000000, 900.000000, 1557626633.493071, 4.000000, 4.000000, 2.000000, 4.000000, 4.000000
28.000000, 0.000000, 4284.102539, 4407.179199, 4111.281738, 4026.666504, 4123.076660, 0.000000, 8155.000000, 8314.000000, 0.000000, 0.000000, 0.000000, 2.000000, 907.799988, 1557626633.500871, 4.000000, 4.000000, 2.000000, 4.000000, 4.000000
29.000000, 0.000000, 4267.179199, 4396.922852, 4104.102539, 4010.769043, 4120.512695, 0.000000, 8152.000000, 8328.000000, 0.000000, 0.000000, 0.000000, 2.000000, 915.500000, 1557626633.508571, 4.000000, 4.000000, 2.000000, 4.000000, 4.000000
30.000000, 0.000000, 4277.948730, 4398.461426, 4094.871582, 4011.281982, 4120.000000, 0.000000, 8153.000000, 8330.000000, 0.000000, 0.000000, 0.000000, 2.000000, 923.299988, 1557626633.516371, 4.000000, 4.000000, 2.000000, 4.000000, 4.000000
31.000000, 0.000000, 4291.281738, 4411.281738, 4091.281982, 4014.871582, 4135.384277, 0.000000, 8156.000000, 8324.000000, 0.000000, 0.000000, 0.000000, 2.000000, 931.099976, 1557626633.524171, 4.000000, 4.000000, 2.000000, 4.000000, 4.000000
32.000000, 0.000000, 4280.000000, 4402.051270, 4091.794678, 4012.820313, 4133.846191, 0.000000, 8154.000000, 8331.000000, 0.000000, 0.000000, 0.000000, 2.000000, 939.000000, 1557626633.532071, 4.000000, 4.000000, 2.000000, 4.000000, 4.000000
33.000000, 0.000000, 4266.153809, 4386.153809, 4091.281982, 4014.871582, 4111.794922, 0.000000, 8149.000000, 8337.000000, 0.000000, 0.000000, 0.000000, 2.000000, 947.000000, 1557626633.540071, 4.000000, 4.000000, 2.000000, 4.000000, 4.000000
34.000000, 0.000000, 4272.307617, 4387.692383, 4085.640869, 4012.307617, 4109.230469, 0.000000, 8148.000000, 8343.000000, 0.000000, 0.000000, 0.000000, 2.000000, 955.000000, 1557626633.548071, 4.000000, 4.000000, 2.000000, 4.000000, 4.000000
35.000000, 0.000000, 4277.948730, 4391.794922, 4084.615234, 4006.153809, 4123.589844, 0.000000, 8146.000000, 8343.000000, 0.000000, 0.000000, 0.000000, 2.000000, 963.000000, 1557626633.556071, 4.000000, 4.000000, 2.000000, 4.000000, 4.000000
36.000000, 0.000000, 4285.641113, 4397.948730, 4084.102539, 4014.871582, 4121.025391, 0.000000, 8142.000000, 8347.000000, 0.000000, 0.000000, 0.000000, 2.000000, 970.899994, 1557626633.563971, 4.000000, 4.000000, 2.000000, 4.000000, 4.000000
37.000000, 0.000000, 4288.205078, 4402.563965, 4077.948730, 4018.461426, 4103.589844, 0.000000, 8149.000000, 8343.000000, 0.000000, 0.000000, 0.000000, 2.000000, 978.899994, 1557626633.571971, 4.000000, 4.000000, 2.000000, 4.000000, 4.000000
38.000000, 0.000000, 4270.256348, 4393.333008, 4074.358887, 4005.128174, 4083.076904, 0.000000, 8145.000000, 8346.000000, 0.000000, 0.000000, 0.000000, 2.000000, 986.699982, 1557626633.579771, 4.000000, 4.000000, 2.000000, 4.000000, 4.000000
39.000000, 0.000000, 4260.000000, 4401.025391, 4075.897217, 4006.153809, 4087.179443, 0.000000, 8138.000000, 8358.000000, 0.000000, 0.000000, 0.000000, 2.000000, 994.500000, 1557626633.587571, 4.000000, 4.000000, 2.000000, 4.000000, 4.000000
40.000000, 0.000000, 4271.794922, 4421.538574, 4078.461426, 4013.333252, 4109.743652, 0.000000, 8140.000000, 8359.000000, 0.000000, 0.000000, 0.000000, 3.000000, 2.199982, 1557626633.595271, 4.000000, 4.000000, 2.000000, 4.000000, 4.000000
41.000000, 0.000000, 4276.922852, 4415.897461, 4084.102539, 4006.153809, 4116.922852, 0.000000, 8147.000000, 8349.000000, 0.000000, 0.000000, 0.000000, 3.000000, 10.099976, 1557626633.603171, 4.000000, 4.000000, 2.000000, 4.000000, 4.000000
42.000000, 0.000000, 4265.641113, 4387.692383, 4086.153809, 4004.615234, 4104.102539, 0.000000, 8147.000000, 8357.000000, 0.000000, 0.000000, 0.000000, 3.000000, 18.099976, 1557626633.611171, 4.000000, 4.000000, 2.000000, 4.000000, 4.000000
43.000000, 0.000000, 4261.538574, 4378.461426, 4080.512695, 4017.435791, 4109.743652, 0.000000, 8149.000000, 8365.000000, 0.000000, 0.000000, 0.000000, 3.000000, 26.099976, 1557626633.619171, 4.000000, 4.000000, 2.000000, 4.000000, 4.000000
44.000000, 0.000000, 4259.487305, 4396.410156, 4084.102539, 4024.615234, 4117.948730, 0.000000, 8153.000000, 8359.000000, 0.000000, 0.000000, 0.000000, 3.000000, 34.000000, 1557626633.627071, 4.000000, 4.000000, 2.000000, 4.000000, 4.000000
45.000000, 0.000000, 4261.538574, 4400.000000, 4093.333252, 4015.384521, 4106.153809, 0.000000, 8153.000000, 8357.000000, 0.000000, 0.000000, 0.000000, 3.000000, 42.000000, 1557626633.635071, 4.000000, 4.000000, 2.000000, 4.000000, 4.000000
46.000000, 0.000000, 4269.230469, 4391.281738, 4092.307617, 4003.589600, 4118.974121, 0.000000, 8151.000000, 8361.000000, 0.000000, 0.000000, 0.000000, 3.000000, 49.799988, 1557626633.642871, 4.000000, 4.000000, 2.000000, 4.000000, 4.000000
47.000000, 0.000000, 4255.384277, 4392.820313, 4090.769043, 4000.000000, 4130.769043, 0.000000, 8153.000000, 8364.000000, 0.000000, 0.000000, 0.000000, 3.000000, 57.599976, 1557626633.650671, 4.000000, 4.000000, 2.000000, 4.000000, 4.000000
48.000000, 0.000000, 4243.076660, 4395.897461, 4089.230713, 4000.512695, 4114.358887, 0.000000, 8157.000000, 8366.000000, 0.000000, 0.000000, 0.000000, 3.000000, 65.299988, 1557626633.658371, 4.000000, 4.000000, 2.000000, 4.000000, 4.000000
49.000000, 0.000000, 4256.922852, 4386.153809, 4089.743408, 4003.076904, 4101.025391, 0.000000, 8164.000000, 8366.000000, 0.000000, 0.000000, 0.000000, 3.000000, 73.200012, 1557626633.666271, 4.000000, 4.000000, 2.000000, 4.000000, 4.000000
50.000000, 0.000000, 4265.641113, 4381.025391, 4093.845947, 4011.794678, 4090.256348, 0.000000, 8167.000000, 8361.000000, 0.000000, 0.000000, 0.000000, 3.000000, 81.200012, 1557626633.674271, 4.000000, 4.000000, 2.000000, 4.000000, 4.000000
51.000000, 0.000000, 4256.410156, 4390.256348, 4092.307617, 4005.640869, 4090.769043, 0.000000, 8171.000000, 8359.000000, 0.000000, 0.000000, 0.000000, 3.000000, 89.200012, 1557626633.682271, 4.000000, 4.000000, 2.000000, 4.000000, 4.000000
52.000000, 0.000000, 4248.205078, 4396.410156, 4088.717773, 3981.025635, 4102.051270, 0.000000, 8170.000000, 8358.000000, 0.000000, 0.000000, 0.000000, 3.000000, 97.099976, 1557626633.690171, 4.000000, 4.000000, 2.000000, 4.000000, 4.000000
53.000000, 0.000000, 4249.743652, 4398.974121, 4088.205078, 3966.666504, 4098.461426, 0.000000, 8157.000000, 8365.000000, 0.000000, 0.000000, 0.000000, 3.000000, 105.099976, 1557626633.698171, 4.000000, 4.000000, 2.000000, 4.000000, 4.000000
54.000000, 0.000000, 4249.743652, 4395.897461, 4083.589600, 3971.281982, 4077.435791, 0.000000, 8168.000000, 8353.000000, 0.000000, 0.000000, 0.000000, 3.000000, 112.899963, 1557626633.705971, 4.000000, 4.000000, 2.000000, 4.000000, 4.000000
55.000000, 0.000000, 4243.589844, 4398.974121, 4086.153809, 3984.615234, 4065.128174, 0.000000, 8162.000000, 8343.000000, 0.000000, 0.000000, 0.000000, 3.000000, 120.700012, 1557626633.713771, 4.000000, 4.000000, 2.000000, 4.000000, 4.000000
56.000000, 0.000000, 4240.000000, 4410.256348, 4088.717773, 3988.717773, 4060.512695, 0.000000, 8156.000000, 8357.000000, 0.000000, 0.000000, 0.000000, 3.000000, 128.399963, 1557626633.721471, 4.000000, 4.000000, 2.000000, 4.000000, 4.000000
57.000000, 0.000000, 4253.333008, 4407.692383, 4078.461426, 3977.435791, 4076.410156, 0.000000, 8156.000000, 8346.000000, 0.000000, 0.000000, 0.000000, 3.000000, 136.200012, 1557626633.729271, 4.000000, 4.000000, 2.000000, 4.000000, 4.000000
58.000000, 0.000000, 4252.820313, 4393.333008, 4077.435791, 3963.076904, 4103.076660, 0.000000, 8153.000000, 8345.000000, 0.000000, 0.000000, 0.000000, 3.000000, 144.200012, 1557626633.737271, 4.000000, 4.000000, 2.000000, 4.000000, 4.000000
59.000000, 0.000000, 4224.615234, 4383.076660, 4088.717773, 3968.205078, 4084.615234, 0.000000, 8156.000000, 8354.000000, 0.000000, 0.000000, 0.000000, 3.000000, 152.200012, 1557626633.745271, 4.000000, 4.000000, 2.000000, 4.000000, 4.000000
60.000000, 0.000000, 4225.127930, 4382.051270, 4085.128174, 3981.538330, 4044.102539, 0.000000, 8144.000000, 8343.000000, 0.000000, 0.000000, 0.000000, 3.000000, 160.099976, 1557626633.753171, 4.000000, 4.000000, 2.000000, 4.000000, 4.000000
61.000000, 0.000000, 4246.666504, 4388.205078, 4077.435791, 3987.179443, 4054.358887, 0.000000, 8145.000000, 8340.000000, 0.000000, 0.000000, 0.000000, 3.000000, 168.099976, 1557626633.761171, 4.000000, 4.000000, 2.000000, 4.000000, 4.000000
62.000000, 0.000000, 4249.230469, 4396.922852, 4086.153809, 3986.666504, 4087.692139, 0.000000, 8141.000000, 8343.000000, 0.000000, 0.000000, 0.000000, 3.000000, 176.099976, 1557626633.769171, 4.000000, 4.000000, 2.000000, 4.000000, 4.000000
63.000000, 0.000000, 4245.641113, 4402.051270, 4089.743408, 3978.461426, 4089.230713, 0.000000, 8140.000000, 8337.000000, 0.000000, 0.000000, 0.000000, 3.000000, 183.899963, 1557626633.776971, 4.000000, 4.000000, 2.000000, 4.000000, 4.000000
64.000000, 0.000000, 4244.102539, 4407.692383, 4078.461426, 3971.794678, 4064.615234, 500.000000, 8137.000000, 8327.000000, 0.000000, 0.000000, 0.000000, 3.000000, 191.599976, 1557626633.784671, 4.000000, 4.000000, 2.000000, 4.000000, 4.000000
65.000000, 0.000000, 4232.307617, 4409.743652, 4078.461426, 3979.487061, 4064.102539, 500.000000, 8139.000000, 8333.000000, 0.000000, 0.000000, 0.000000, 3.000000, 199.399963, 1557626633.792471, 4.000000, 4.000000, 2.000000, 4.000000, 4.000000
66.000000, 0.000000, 4226.153809, 4396.922852, 4083.076904, 3992.820313, 4086.666504, 16187.000000, 8135.000000, 8338.000000, 0.000000, 0.000000, 0.000000, 3.000000, 207.200012, 1557626633.800271, 4.000000, 4.000000, 2.000000, 4.000000, 4.000000
67.000000, 0.000000, 4232.307617, 4389.230469, 4078.974365, 3981.538330, 4082.563965, 500.000000, 8137.000000, 8326.000000, 0.000000, 0.000000, 0.000000, 3.000000, 215.200012, 1557626633.808271, 4.000000, 4.000000, 2.000000, 4.000000, 4.000000
68.000000, 0.000000, 4234.871582, 4401.025391, 4077.948730, 3963.589600, 4063.589600, 16106.000000, 8141.000000, 8333.000000, 0.000000, 0.000000, 0.000000, 3.000000, 223.099976, 1557626633.816171, 4.000000, 4.000000, 2.000000, 4.000000, 4.000000
69.000000, 0.000000, 4234.871582, 4406.666504, 4088.205078, 3976.410156, 4065.128174, 500.000000, 8137.000000, 8345.000000, 0.000000, 0.000000, 0.000000, 3.000000, 231.099976, 1557626633.824171, 4.000000, 4.000000, 2.000000, 4.000000, 4.000000
70.000000, 0.000000, 4232.307617, 4395.897461, 4092.820313, 3992.820313, 4082.563965, 179.000000, 8139.000000, 8339.000000, 0.000000, 0.000000, 0.000000, 3.000000, 239.000000, 1557626633.832071, 4.000000, 4.000000, 2.000000, 4.000000, 4.000000
71.000000, 0.000000, 4240.512695, 4393.333008, 4077.435791, 3989.743408, 4083.076904, 500.000000, 8139.000000, 8332.000000, 0.000000, 0.000000, 0.000000, 3.000000, 246.700012, 1557626633.839771, 4.000000, 4.000000, 2.000000, 4.000000, 4.000000
72.000000, 0.000000, 4250.256348, 4398.974121, 4068.205078, 3986.153809, 4067.179443, 500.000000, 8142.000000, 8344.000000, 0.000000, 0.000000, 0.000000, 3.000000, 254.500000, 1557626633.847571, 4.000000, 4.000000, 2.000000, 4.000000, 4.000000
73.000000, 0.000000, 4233.333008, 4390.769043, 4078.974365, 3985.640869, 4060.512695, 295.000000, 8148.000000, 8338.000000, 0.000000, 0.000000, 0.000000, 3.000000, 262.299988, 1557626633.855371, 4.000000, 4.000000, 2.000000, 4.000000, 4.000000
74.000000, 0.000000, 4215.384277, 4382.563965, 4076.410156, 3975.384521, 4056.410156, 500.000000, 8142.000000, 8336.000000, 0.000000, 0.000000, 0.000000, 3.000000, 270.099976, 1557626633.863171, 4.000000, 4.000000, 2.000000, 4.000000, 4.000000
75.000000, 0.000000, 4210.256348, 4387.692383, 4066.666504, 3968.717773, 4054.358887, 16179.000000, 8140.000000, 8330.000000, 0.000000, 0.000000, 0.000000, 3.000000, 278.000000, 1557626633.871071, 4.000000, 4.000000, 2.000000, 4.000000, 4.000000
76.000000, 0.000000, 4216.410156, 4389.230469, 4072.820313, 3980.000000, 4063.589600, 500.000000, 8146.000000, 8327.000000, 0.000000, 0.000000, 0.000000, 3.000000, 286.000000, 1557626633.879071, 4.000000, 4.000000, 2.000000, 4.000000, 4.000000
77.000000, 0.000000, 4239.487305, 4383.076660, 4069.230713, 3991.281982, 4075.897217, 500.000000, 8141.000000, 8330.000000, 0.000000, 0.000000, 0.000000, 3.000000, 294.000000, 1557626633.887071, 4.000000, 4.000000, 2.000000, 4.000000, 4.000000
78.000000, 0.000000, 4251.794922, 4380.000000, 4055.384521, 3990.256348, 4084.615234, 450.000000, 8142.000000, 8333.000000, 0.000000, 0.000000, 0.000000, 3.000000, 302.000000, 1557626633.895071, 4.000000, 4.000000, 2.000000, 4.000000, 4.000000
79.000000, 0.000000, 4238.974121, 4383.589844, 4061.538330, 3989.230713, 4100.512695, 16179.000000, 8142.000000, 8331.000000, 0.000000, 0.000000, 0.000000, 3.000000, 309.700012, 1557626633.902771, 4.000000, 4.000000, 2.000000, 4.000000, 4.000000
80.000000, 0.000000, 4246.666504, 4395.384277, 4074.358887, 3993.845947, 4124.102539, 450.000000, 8143.000000, 8325.000000, 0.000000, 0.000000, 0.000000, 3.000000, 317.500000, 1557626633.910571, 4.000000, 4.000000, 2.000000, 4.000000, 4.000000
81.000000, 0.000000, 4272.820313, 4403.076660, 4076.410156, 3992.820313, 4120.512695, 450.000000, 8140.000000, 8326.000000, 0.000000, 0.000000, 0.000000, 3.000000, 325.299988, 1557626633.918371, 4.000000, 4.000000, 2.000000, 4.000000, 4.000000
82.000000, 0.000000, 4267.179199, 4403.076660, 4070.256348, 3987.179443, 4094.871582, 450.000000, 8139.000000, 8343.000000, 0.000000, 0.000000, 0.000000, 3.000000, 333.200012, 1557626633.926271, 4.000000, 4.000000, 2.000000, 4.000000, 4.000000
83.000000, 0.000000, 4251.794922, 4397.948730, 4060.000000, 3988.205078, 4094.871582, 16179.000000, 8136.000000, 8350.000000, 0.000000, 0.000000, 0.000000, 3.000000, 341.099976, 1557626633.934171, 4.000000, 4.000000, 2.000000, 4.000000, 4.000000
84.000000, 0.000000, 4243.076660, 4378.974121, 4061.025635, 3992.820313, 4110.256348, 450.000000, 8141.000000, 8339.000000, 0.000000, 0.000000, 0.000000, 3.000000, 349.099976, 1557626633.942171, 4.000000, 4.000000, 2.000000, 4.000000, 4.000000
85.000000, 0.000000, 4232.820313, 4368.205078, 4077.948730, 3988.205078, 4110.769043, 450.000000, 8137.000000, 8338.000000, 0.000000, 0.000000, 0.000000, 3.000000, 357.099976, 1557626633.950171, 4.000000, 4.000000, 2.000000, 4.000000, 4.000000
86.000000, 0.000000, 4238.974121, 4383.076660, 4080.512695, 3985.128174, 4094.871582, 450.000000, 8139.000000, 8346.000000, 0.000000, 0.000000, 0.000000, 3.000000, 365.099976, 1557626633.958171, 4.000000, 4.000000, 2.000000, 4.000000, 4.000000
87.000000, 0.000000, 4251.281738, 4387.692383, 4065.128174, 3998.461426, 4066.153809, 16179.000000, 8145.000000, 8337.000000, 0.000000, 0.000000, 0.000000, 3.000000, 373.000000, 1557626633.966071, 4.000000, 4.000000, 2.000000, 4.000000, 4.000000
88.000000, 0.000000, 4244.102539, 4382.563965, 4060.512695, 4000.512695, 4057.948730, 450.000000, 8141.000000, 8341.000000, 0.000000, 0.000000, 0.000000, 3.000000, 380.799988, 1557626633.973871, 4.000000, 4.000000, 2.000000, 4.000000, 4.000000
89.000000, 0.000000, 4222.563965, 4390.769043, 4060.512695, 3972.820313, 4073.845947, 450.000000, 8147.000000, 8337.000000, 0.000000, 0.000000, 0.000000, 3.000000, 388.599976, 1557626633.981671, 4.000000, 4.000000, 2.000000, 4.000000, 4.000000
90.000000, 0.000000, 4213.846191, 4392.820313, 4055.384521, 3966.666504, 4066.153809, 450.000000, 8148.000000, 8334.000000, 0.000000, 0.000000, 0.000000, 3.000000, 396.399963, 1557626633.989471, 4.000000, 4.000000, 2.000000, 4.000000, 4.000000
91.000000, 0.000000, 4224.102539, 4384.102539, 4062.051270, 4004.615234, 4061.025635, 16179.000000, 8144.000000, 8342.000000, 0.000000, 0.000000, 0.000000, 3.000000, 404.099976, 1557626633.997171, 4.000000, 4.000000, 2.000000, 4.000000, 4.000000
92.000000, 0.000000, 4248.205078, 4380.512695, 4075.897217, 4028.205078, 4107.179199, 450.000000, 8143.000000, 8343.000000, 0.000000, 0.000000, 0.000000, 3.000000, 412.000000, 1557626634.005071, 4.000000, 4.000000, 2.000000, 4.000000, 4.000000
93.000000, 0.000000, 4262.051270, 4386.666504, 4078.974365, 4021.538330, 4130.769043, 450.000000, 8143.000000, 8337.000000, 0.000000, 0.000000, 0.000000, 3.000000, 420.000000, 1557626634.013071, 4.000000, 4.000000, 2.000000, 4.000000, 4.000000
94.000000, 0.000000, 4254.358887, 4396.922852, 4073.333252, 4007.692139, 4095.384521, 450.000000, 8149.000000, 8339.000000, 0.000000, 0.000000, 0.000000, 3.000000, 428.000000, 1557626634.021071, 4.000000, 4.000000, 2.000000, 4.000000, 4.000000
95.000000, 0.000000, 4249.230469, 4396.410156, 4078.974365, 3991.794678, 4093.845947, 16179.000000, 8145.000000, 8345.000000, 0.000000, 0.000000, 0.000000, 3.000000, 435.700012, 1557626634.028771, 4.000000, 4.000000, 2.000000, 4.000000, 4.000000
96.000000, 0.000000, 4245.641113, 4378.974121, 4092.820313, 3991.794678, 4117.436035, 450.000000, 8148.000000, 8347.000000, 0.000000, 0.000000, 0.000000, 3.000000, 443.500000, 1557626634.036571, 4.000000, 4.000000, 2.000000, 4.000000, 4.000000
97.000000, 0.000000, 4245.127930, 4372.820313, 4086.666504, 4009.230713, 4104.102539, 450.000000, 8147.000000, 8335.000000, 0.000000, 0.000000, 0.000000, 3.000000, 451.299988, 1557626634.044371, 4.000000, 4.000000, 2.000000, 4.000000, 4.000000
98.000000, 0.000000, 4245.641113, 4389.230469, 4073.333252, 4018.461426, 4086.666504, 450.000000, 8142.000000, 8336.000000, 0.000000, 0.000000, 0.000000, 3.000000, 459.200012, 1557626634.052271, 4.000000, 4.000000, 2.000000, 4.000000, 4.000000
99.000000, 0.000000, 4237.948730, 4396.922852, 4076.923096, 4005.128174, 4092.307617, 16179.000000, 8147.000000, 8345.000000, 0.000000, 0.000000, 0.000000, 3.000000, 467.099976, 1557626634.060171, 4.000000, 4.000000, 2.000000, 4.000000, 4.000000
100.000000, 0.000000, 4235.384277, 4394.871582, 4077.948730, 3988.205078, 4093.845947, 450.000000, 8146.000000, 8346.000000, 0.000000, 0.000000, 0.000000, 3.000000, 475.099976, 1557626634.068171, 4.000000, 4.000000, 2.000000, 4.000000, 4.000000
101.000000, 0.000000, 4249.743652, 4400.000000, 4069.230713, 3995.384521, 4082.051270, 450.000000, 8140.000000, 8336.000000, 0.000000, 0.000000, 0.000000, 3.000000, 483.099976, 1557626634.076171, 4.000000, 4.000000, 2.000000, 4.000000, 4.000000
102.000000, 0.000000, 4255.897461, 4401.025391, 4069.230713, 4009.743408, 4074.358887, 450.000000, 8143.000000, 8346.000000, 0.000000, 0.000000, 0.000000, 3.000000, 491.099976, 1557626634.084171, 4.000000, 4.000000, 2.000000, 4.000000, 4.000000
103.000000, 0.000000, 4245.127930, 4382.051270, 4069.230713, 3998.461426, 4072.820313, 16179.000000, 8150.000000, 8345.000000, 0.000000, 0.000000, 0.000000, 3.000000, 499.000000, 1557626634.092071, 4.000000, 4.000000, 2.000000, 4.000000, 4.000000
104.000000, 0.000000, 4245.641113, 4371.281738, 4063.589600, 3982.051270, 4081.025635, 450.000000, 8140.000000, 8344.000000, 0.000000, 0.000000, 0.000000, 3.000000, 506.799988, 1557626634.099871, 4.000000, 4.000000, 2.000000, 4.000000, 4.000000
105.000000, 0.000000, 4251.281738, 4382.051270, 4066.666504, 3988.205078, 4094.871582, 450.000000, 8143.000000, 8355.000000, 0.000000, 0.000000, 0.000000, 3.000000, 514.599976, 1557626634.107671, 4.000000, 4.000000, 2.000000, 4.000000, 4.000000
106.000000, 0.000000, 4251.281738, 4383.589844, 4073.845947, 3999.487061, 4094.358887, 450.000000, 8145.000000, 8346.000000, 0.000000, 0.000000, 0.000000, 3.000000, 522.399988, 1557626634.115471, 4.000000, 4.000000, 2.000000, 4.000000, 4.000000
107.000000, 0.000000, 4252.307617, 4380.000000, 4078.461426, 4003.589600, 4075.897217, 16179.000000, 8141.000000, 8348.000000, 0.000000, 0.000000, 0.000000, 3.000000, 530.099988, 1557626634.123171, 4.000000, 4.000000, 2.000000, 4.000000, 4.000000
108.000000, 0.000000, 4250.769043, 4393.333008, 4081.538330, 4008.717773, 4074.358887, 450.000000, 8151.000000, 8358.000000, 0.000000, 0.000000, 0.000000, 3.000000, 538.099987, 1557626634.131171, 4.000000, 4.000000, 2.000000, 4.000000, 4.000000
109.000000, 0.000000, 4248.717773, 4395.897461, 4076.923096, 4007.179443, 4096.922852, 450.000000, 8150.000000, 8360.000000, 0.000000, 0.000000, 0.000000, 3.000000, 546.099987, 1557626634.139171, 4.000000, 4.000000, 2.000000, 4.000000, 4.000000
110.000000, 0.000000, 4249.743652, 4382.563965, 4075.897217, 4006.666504, 4112.820313, 450.000000, 8153.000000, 8347.000000, 0.000000, 0.000000, 0.000000, 3.000000, 553.999989, 1557626634.147071, 4.000000, 4.000000, 2.000000, 4.000000, 4.000000
111.000000, 0.000000, 4251.281738, 4389.743652, 4085.128174, 4005.640869, 4103.076660, 16179.000000, 8156.000000, 8347.000000, 0.000000, 0.000000, 0.000000, 3.000000, 561.999989, 1557626634.155071, 4.000000, 4.000000, 2.000000, 4.000000, 4.000000
112.000000, 0.000000, 4251.281738, 4400.512695, 4084.102539, 3995.384521, 4077.435791, 450.000000, 8152.000000, 8354.000000, 0.000000, 0.000000, 0.000000, 3.000000, 569.999989, 1557626634.163071, 4.000000, 4.000000, 2.000000, 4.000000, 4.000000
113.000000, 0.000000, 4249.230469, 4391.281738, 4075.897217, 3994.871582, 4069.230713, 450.000000, 8154.000000, 8343.000000, 0.000000, 0.000000, 0.000000, 3.000000, 577.799988, 1557626634.170871, 4.000000, 4.000000, 2.000000, 4.000000, 4.000000
114.000000, 0.000000, 4246.666504, 4390.769043, 4083.589600, 4007.692139, 4093.845947, 450.000000, 8155.000000, 8331.000000, 0.000000, 0.000000, 0.000000, 3.000000, 585.499985, 1557626634.178571, 4.000000, 4.000000, 2.000000, 4.000000, 4.000000
115.000000, 0.000000, 4255.384277, 4395.384277, 4092.820313, 4020.000000, 4117.948730, 16179.000000, 8157.000000, 8339.000000, 0.000000, 0.000000, 0.000000, 3.000000, 593.299988, 1557626634.186371, 4.000000, 4.000000, 2.000000, 4.000000, 4.000000
116.000000, 0.000000, 4263.589844, 4383.076660, 4086.153809, 4018.974365, 4101.538574, 450.000000, 8158.000000, 8341.000000, 0.000000, 0.000000, 0.000000, 3.000000, 601.199989, 1557626634.194271, 4.000000, 4.000000, 2.000000, 4.000000, 4.000000
117.000000, 0.000000, 4245.127930, 4377.948730, 4074.871582, 4009.230713, 4078.974365, 450.000000, 8150.000000, 8340.000000, 0.000000, 0.000000, 0.000000, 3.000000, 609.199989, 1557626634.202271, 4.000000, 4.000000, 2.000000, 4.000000, 4.000000
118.000000, 0.000000, 4216.410156, 4380.512695, 4072.307617, 4002.051270, 4078.461426, 450.000000, 8139.000000, 8344.000000, 0.000000, 0.000000, 0.000000, 3.000000, 616.999985, 1557626634.210071, 4.000000, 4.000000, 2.000000, 4.000000, 4.000000
119.000000, 0.000000, 4212.820313, 4373.333008, 4076.410156, 3996.923096, 4074.871582, 16179.000000, 8150.000000, 8334.000000, 0.000000, 0.000000, 0.000000, 3.000000, 624.999985, 1557626634.218071, 4.000000, 4.000000, 2.000000, 4.000000, 4.000000
120.000000, 0.000000, 4225.127930, 4382.051270, 4072.820313, 3991.281982, 4072.307617, 450.000000, 8147.000000, 8331.000000, 0.000000, 0.000000, 0.000000, 3.000000, 632.999985, 1557626634.226071, 4.000000, 4.000000, 2.000000, 4.000000, 4.000000
121.000000, 0.000000, 4232.307617, 4398.974121, 4070.256348, 3986.153809, 4073.845947, 450.000000, 8142.000000, 8342.000000, 0.000000, 0.000000, 0.000000, 3.000000, 640.799988, 1557626634.233871, 4.000000, 4.000000, 2.000000, 4.000000, 4.000000
122.000000, 0.000000, 4238.461426, 4394.358887, 4070.769043, 3991.794678, 4078.974365, 450.000000, 8137.000000, 8346.000000, 0.000000, 0.000000, 0.000000, 3.000000, 648.499985, 1557626634.241571, 4.000000, 4.000000, 2.000000, 4.000000, 4.000000
123.000000, 0.000000, 4249.743652, 4388.717773, 4068.717773, 4006.153809, 4082.563965, 16179.000000, 8143.000000, 8336.000000, 0.000000, 0.000000, 0.000000, 3.000000, 656.299988, 1557626634.249371, 4.000000, 4.000000, 2.000000, 4.000000, 4.000000
124.000000, 0.000000, 4250.769043, 4396.410156, 4075.384521, 4010.769043, 4071.281982, 450.000000, 8139.000000, 8330.000000, 0.000000, 0.000000, 0.000000, 3.000000, 664.199982, 1557626634.257271, 4.000000, 4.000000, 2.000000, 4.000000, 4.000000
125.000000, 0.000000, 4238.461426, 4392.820313, 4084.102539, 4011.794678, 4073.845947, 450.000000, 8137.000000, 8341.000000, 0.000000, 0.000000, 0.000000, 3.000000, 672.199982, 1557626634.265271, 4.000000, 4.000000, 2.000000, 4.000000, 4.000000
126.000000, 0.000000, 4229.230469, 4378.461426, 4081.538330, 4018.974365, 4098.974121, 450.000000, 8140.000000, 8334.000000, 0.000000, 0.000000, 0.000000, 3.000000, 679.999985, 1557626634.273071, 4.000000, 4.000000, 2.000000, 4.000000, 4.000000
127.000000, 0.000000, 4226.666504, 4382.563965, 4068.205078, 4012.820313, 4105.641113, 16179.000000, 8148.000000, 8331.000000, 0.000000, 0.000000, 0.000000, 3.000000, 687.999985, 1557626634.281071, 4.000000, 4.000000, 2.000000, 4.000000, 4.000000
128.000000, 0.000000, 4232.307617, 4391.281738, 4067.692139, 3992.820313, 4083.076904, 500.000000, 8148.000000, 8327.000000, 0.000000, 0.000000, 0.000000, 3.000000, 695.999985, 1557626634.289071, 4.000000, 4.000000, 2.000000, 4.000000, 4.000000
0.000000, 0.000000, 4249.743652, 4392.307617, 4075.384521, 3996.923096, 4072.307617, 500.000000, 8141.000000, 8336.000000, 0.000000, 0.000000, 0.000000, 3.000000, 703.999985, 1557626634.297071, 4.000000, 4.000000, 2.000000, 4.000000, 4.000000
1.000000, 0.000000, 4254.358887, 4394.871582, 4073.845947, 4011.794678, 4075.897217, 500.000000, 8149.000000, 8327.000000, 0.000000, 0.000000, 0.000000, 3.000000, 711.699982, 1557626634.304771, 4.000000, 4.000000, 2.000000, 4.000000, 4.000000
2.000000, 0.000000, 4236.922852, 4394.871582, 4074.358887, 4017.435791, 4074.358887, 16182.000000, 8146.000000, 8331.000000, 0.000000, 0.000000, 0.000000, 3.000000, 719.499985, 1557626634.312571, 4.000000, 4.000000, 2.000000, 4.000000, 4.000000
3.000000, 0.000000, 4227.692383, 4382.563965, 4076.410156, 4020.512695, 4075.384521, 500.000000, 8143.000000, 8336.000000, 0.000000, 0.000000, 0.000000, 3.000000, 727.299988, 1557626634.320371, 4.000000, 4.000000, 2.000000, 4.000000, 4.000000
4.000000, 0.000000, 4232.820313, 4380.000000, 4072.307617, 4007.179443, 4073.333252, 16097.000000, 8148.000000, 8326.000000, 0.000000, 0.000000, 0.000000, 3.000000, 735.199982, 1557626634.328271, 4.000000, 4.000000, 2.000000, 4.000000, 4.000000
5.000000, 0.000000, 4236.922852, 4390.256348, 4068.717773, 3998.461426, 4069.743408, 500.000000, 8146.000000, 8334.000000, 0.000000, 0.000000, 0.000000, 3.000000, 742.999985, 1557626634.336071, 4.000000, 4.000000, 2.000000, 4.000000, 4.000000
6.000000, 0.000000, 4227.179199, 4382.563965, 4072.307617, 4043.076904, 4062.051270, 179.000000, 8146.000000, 8335.000000, 0.000000, 0.000000, 0.000000, 3.000000, 750.999985, 1557626634.344071, 4.000000, 4.000000, 2.000000, 4.000000, 4.000000
7.000000, 0.000000, 4216.410156, 4375.384277, 4074.358887, 4088.717773, 4047.179443, 500.000000, 8147.000000, 8326.000000, 0.000000, 0.000000, 0.000000, 3.000000, 758.999985, 1557626634.352071, 4.000000, 4.000000, 2.000000, 4.000000, 4.000000
8.000000, 0.000000, 4225.641113, 4384.615234, 4070.769043, 4075.384521, 4051.281982, 500.000000, 8149.000000, 8322.000000, 0.000000, 0.000000, 0.000000, 3.000000, 766.799988, 1557626634.359871, 4.000000, 4.000000, 2.000000, 4.000000, 4.000000
9.000000, 0.000000, 4247.692383, 4378.974121, 4069.230713, 4056.410156, 4071.794678, 297.000000, 8148.000000, 8337.000000, 0.000000, 0.000000, 0.000000, 3.000000, 774.699982, 1557626634.367771, 4.000000, 4.000000, 2.000000, 4.000000, 4.000000
10.000000, 0.000000, 4261.025391, 4374.358887, 4074.358887, 4067.179443, 4085.128174, 500.000000, 8146.000000, 8339.000000, 0.000000, 0.000000, 0.000000, 3.000000, 782.500000, 1557626634.375571, 4.000000, 4.000000, 2.000000, 4.000000, 4.000000
11.000000, 0.000000, 4251.281738, 4389.743652, 4081.538330, 4068.717773, 4081.538330, 16174.000000, 8148.000000, 8331.000000, 0.000000, 0.000000, 0.000000, 3.000000, 790.299988, 1557626634.383371, 4.000000, 4.000000, 2.000000, 4.000000, 4.000000
12.000000, 0.000000, 4250.256348, 4396.922852, 4079.487061, 4062.563965, 4096.922852, 500.000000, 8144.000000, 8329.000000, 0.000000, 0.000000, 0.000000, 3.000000, 798.199982, 1557626634.391271, 4.000000, 4.000000, 2.000000, 4.000000, 4.000000
13.000000, 0.000000, 4275.384277, 4390.256348, 4081.025635, 4075.897217, 4122.563965, 500.000000, 8145.000000, 8341.000000, 0.000000, 0.000000, 0.000000, 3.000000, 806.099976, 1557626634.399171, 4.000000, 4.000000, 2.000000, 4.000000, 4.000000
14.000000, 0.000000, 4286.153809, 4396.410156, 4090.256348, 4081.538330, 4123.076660, 450.000000, 8142.000000, 8338.000000, 0.000000, 0.000000, 0.000000, 3.000000, 814.099976, 1557626634.407171, 4.000000, 4.000000, 2.000000, 4.000000, 4.000000
15.000000, 0.000000, 4274.358887, 4405.641113, 4092.820313, 4072.820313, 4116.922852, 16174.000000, 8141.000000, 8335.000000, 0.000000, 0.000000, 0.000000, 3.000000, 822.099976, 1557626634.415171, 4.000000, 4.000000, 2.000000, 4.000000, 4.000000
16.000000, 0.000000, 4277.436035, 4404.615234, 4085.128174, 4076.923096, 4112.307617, 0.000000, 8142.000000, 8344.000000, 0.000000, 0.000000, 0.000000, 3.000000, 830.099976, 1557626634.423171, 4.000000, 4.000000, 2.000000, 4.000000, 4.000000
17.000000, 0.000000, 4273.846191, 4400.000000, 4085.640869, 4073.845947, 4103.076660, 0.000000, 8147.000000, 8342.000000, 0.000000, 0.000000, 0.000000, 3.000000, 838.000000, 1557626634.431071, 4.000000, 4.000000, 2.000000, 4.000000, 4.000000
18.000000, 0.000000, 4250.769043, 4393.333008, 4089.743408, 4057.435791, 4087.692139, 0.000000, 8140.000000, 8341.000000, 0.000000, 0.000000, 0.000000, 3.000000, 845.799988, 1557626634.438871, 4.000000, 4.000000, 2.000000, 4.000000, 4.000000
19.000000, 0.000000, 4250.256348, 4392.307617, 4082.563965, 4064.615234, 4078.974365, 0.000000, 8146.000000, 8350.000000, 0.000000, 0.000000, 0.000000, 3.000000, 853.599976, 1557626634.446671, 4.000000, 4.000000, 2.000000, 4.000000, 4.000000
20.000000, 0.000000, 4253.333008, 4397.435547, 4085.640869, 4081.538330, 4097.436035, 0.000000, 8144.000000, 8337.000000, 0.000000, 0.000000, 0.000000, 3.000000, 861.299988, 1557626634.454371, 4.000000, 4.000000, 2.000000, 4.000000, 4.000000
