title:ganesh sad2, recorded:12.05.19 13.47.00, timestamp started:2019-05-12T13:47:00.922880+05:30, sampling:128, subject:, labels:COUNTER INTERPOLATED AF3 T7 Pz T8 AF4 RAW_CQ GYROX GYROY MARKER MARKER_HARDWARE SYNC TIME_STAMP_s TIME_STAMP_ms TimeStamp CQ_AF3 CQ_T7 CQ_Pz CQ_T8 CQ_AF4, chan:20, samples:3927, units:emotiv
116.000000, 0.000000, 4722.563965, 4226.666504, 4000.512695, 4123.589844, 4316.922852, 450.000000, 8136.000000, 8370.000000, 1.000000, 1.000000, 0.000000, 0.000000, 0.000000, 1557649020.922881, 4.000000, 4.000000, 4.000000, 4.000000, 4.000000
117.000000, 0.000000, 4733.846191, 4240.512695, 4010.769043, 4127.692383, 4328.717773, 450.000000, 8139.000000, 8373.000000, 0.000000, 0.000000, 0.000000, 0.000000, 7.899994, 1557649020.930781, 4.000000, 4.000000, 4.000000, 4.000000, 4.000000
118.000000, 0.000000, 4732.307617, 4238.461426, 4015.384521, 4142.563965, 4332.820313, 450.000000, 8139.000000, 8361.000000, 0.000000, 0.000000, 0.000000, 0.000000, 15.700012, 1557649020.938581, 4.000000, 4.000000, 4.000000, 4.000000, 4.000000
119.000000, 0.000000, 4725.127930, 4227.179199, 4014.358887, 4138.461426, 4334.871582, 16173.000000, 8143.000000, 8362.000000, 0.000000, 0.000000, 0.000000, 0.000000, 23.500000, 1557649020.946381, 4.000000, 4.000000, 4.000000, 4.000000, 4.000000
120.000000, 0.000000, 4737.948730, 4242.051270, 4023.076904, 4124.615234, 4337.948730, 450.000000, 8135.000000, 8370.000000, 0.000000, 0.000000, 0.000000, 0.000000, 31.300018, 1557649020.954181, 4.000000, 4.000000, 4.000000, 4.000000, 4.000000
121.000000, 0.000000, 4729.230469, 4254.871582, 4029.230713, 4129.743652, 4316.922852, 450.000000, 8144.000000, 8368.000000, 0.000000, 0.000000, 0.000000, 0.000000, 39.000000, 1557649020.961881, 4.000000, 4.000000, 4.000000, 4.000000, 4.000000
122.000000, 0.000000, 4697.435547, 4238.461426, 4021.025635, 4141.025391, 4294.871582, 450.000000, 8144.000000, 8364.000000, 0.000000, 0.000000, 0.000000, 0.000000, 47.000000, 1557649020.969881, 4.000000, 4.000000, 4.000000, 4.000000, 4.000000
123.000000, 0.000000, 4706.666504, 4234.358887, 4021.025635, 4136.922852, 4305.127930, 16173.000000, 8141.000000, 8362.000000, 0.000000, 0.000000, 0.000000, 0.000000, 55.000000, 1557649020.977881, 4.000000, 4.000000, 4.000000, 4.000000, 4.000000
124.000000, 0.000000, 4745.641113, 4248.717773, 4033.845947, 4132.307617, 4329.230469, 450.000000, 8149.000000, 8356.000000, 0.000000, 0.000000, 0.000000, 0.000000, 62.800018, 1557649020.985681, 4.000000, 4.000000, 4.000000, 4.000000, 4.000000
125.000000, 0.000000, 4757.948730, 4241.025391, 4037.948730, 4142.051270, 4337.436035, 450.000000, 8149.000000, 8351.000000, 0.000000, 0.000000, 0.000000, 0.000000, 70.600006, 1557649020.993481, 4.000000, 4.000000, 4.000000, 4.000000, 4.000000
126.000000, 0.000000, 4750.256348, 4227.179199, 4038.974365, 4148.717773, 4341.538574, 450.000000, 8145.000000, 8358.000000, 0.000000, 0.000000, 0.000000, 0.000000, 78.300018, 1557649021.001181, 4.000000, 4.000000, 4.000000, 4.000000, 4.000000
127.000000, 0.000000, 4754.358887, 4240.000000, 4052.307617, 4146.153809, 4349.230469, 16173.000000, 8146.000000, 8356.000000, 0.000000, 0.000000, 0.000000, 0.000000, 86.100006, 1557649021.008981, 4.000000, 4.000000, 4.000000, 4.000000, 4.000000
128.000000, 0.000000, 4750.769043, 4253.333008, 4050.256348, 4139.487305, 4338.461426, 500.000000, 8144.000000, 8344.000000, 0.000000, 0.000000, 0.000000, 0.000000, 94.100006, 1557649021.016981, 4.000000, 4.000000, 4.000000, 4.000000, 4.000000
0.000000, 0.000000, 4730.256348, 4240.512695, 4028.717773, 4136.922852, 4320.000000, 500.000000, 8146.000000, 8351.000000, 0.000000, 0.000000, 0.000000, 0.000000, 102.100006, 1557649021.024981, 4.000000, 4.000000, 4.000000, 4.000000, 4.000000
1.000000, 0.000000, 4726.153809, 4227.692383, 4030.769043, 4141.538574, 4324.102539, 500.000000, 8144.000000, 8359.000000, 0.000000, 0.000000, 0.000000, 0.000000, 110.000031, 1557649021.032881, 4.000000, 4.000000, 4.000000, 4.000000, 4.000000
2.000000, 0.000000, 4732.820313, 4231.794922, 4040.000000, 4140.512695, 4328.717773, 16184.000000, 8148.000000, 8344.000000, 0.000000, 0.000000, 0.000000, 0.000000, 118.000031, 1557649021.040881, 4.000000, 4.000000, 4.000000, 4.000000, 4.000000
3.000000, 0.000000, 4721.025391, 4235.384277, 4022.563965, 4136.922852, 4311.794922, 500.000000, 8146.000000, 8344.000000, 0.000000, 0.000000, 0.000000, 0.000000, 126.000031, 1557649021.048881, 4.000000, 4.000000, 4.000000, 4.000000, 4.000000
4.000000, 0.000000, 4712.820313, 4236.410156, 4019.487061, 4142.563965, 4306.153809, 16096.000000, 8144.000000, 8357.000000, 0.000000, 0.000000, 0.000000, 0.000000, 134.000031, 1557649021.056881, 4.000000, 4.000000, 4.000000, 4.000000, 4.000000
5.000000, 0.000000, 4716.922852, 4241.538574, 4036.923096, 4140.512695, 4311.794922, 500.000000, 8149.000000, 8354.000000, 0.000000, 0.000000, 0.000000, 0.000000, 142.000031, 1557649021.064881, 4.000000, 4.000000, 4.000000, 4.000000, 4.000000
6.000000, 0.000000, 4703.076660, 4238.461426, 4027.692139, 4131.281738, 4298.461426, 16141.000000, 8141.000000, 8350.000000, 0.000000, 0.000000, 0.000000, 0.000000, 149.699982, 1557649021.072581, 4.000000, 4.000000, 4.000000, 4.000000, 4.000000
7.000000, 0.000000, 4688.717773, 4229.230469, 4013.845947, 4133.846191, 4285.641113, 500.000000, 8138.000000, 8360.000000, 0.000000, 0.000000, 0.000000, 0.000000, 157.500031, 1557649021.080381, 4.000000, 4.000000, 4.000000, 4.000000, 4.000000
8.000000, 0.000000, 4694.358887, 4223.589844, 4023.076904, 4136.922852, 4285.127930, 500.000000, 8139.000000, 8361.000000, 0.000000, 0.000000, 0.000000, 0.000000, 165.300018, 1557649021.088181, 4.000000, 4.000000, 4.000000, 4.000000, 4.000000
9.000000, 0.000000, 4696.410156, 4226.153809, 4032.820313, 4139.487305, 4284.615234, 16316.000000, 8135.000000, 8365.000000, 0.000000, 0.000000, 0.000000, 0.000000, 173.100006, 1557649021.095981, 4.000000, 4.000000, 4.000000, 4.000000, 4.000000
10.000000, 0.000000, 4690.256348, 4240.512695, 4046.666504, 4147.692383, 4294.358887, 500.000000, 8134.000000, 8367.000000, 0.000000, 0.000000, 0.000000, 0.000000, 181.100006, 1557649021.103981, 4.000000, 4.000000, 4.000000, 4.000000, 4.000000
11.000000, 0.000000, 4682.563965, 4240.512695, 4050.256348, 4144.102539, 4296.922852, 16174.000000, 8136.000000, 8365.000000, 0.000000, 0.000000, 0.000000, 0.000000, 189.000031, 1557649021.111881, 4.000000, 4.000000, 4.000000, 4.000000, 4.000000
12.000000, 0.000000, 4677.948730, 4228.717773, 4031.281982, 4139.487305, 4281.538574, 500.000000, 8137.000000, 8354.000000, 0.000000, 0.000000, 0.000000, 0.000000, 197.000031, 1557649021.119881, 4.000000, 4.000000, 4.000000, 4.000000, 4.000000
13.000000, 0.000000, 4684.615234, 4236.410156, 4025.128174, 4150.256348, 4284.615234, 500.000000, 8141.000000, 8359.000000, 0.000000, 0.000000, 0.000000, 0.000000, 205.000031, 1557649021.127881, 4.000000, 4.000000, 4.000000, 4.000000, 4.000000
14.000000, 0.000000, 4686.666504, 4239.487305, 4034.871582, 4153.333008, 4297.948730, 450.000000, 8127.000000, 8363.000000, 0.000000, 0.000000, 0.000000, 0.000000, 212.800018, 1557649021.135681, 4.000000, 4.000000, 4.000000, 4.000000, 4.000000
15.000000, 0.000000, 4688.205078, 4231.281738, 4042.051270, 4150.256348, 4303.076660, 16174.000000, 8137.000000, 8353.000000, 0.000000, 0.000000, 0.000000, 0.000000, 220.500031, 1557649021.143381, 4.000000, 4.000000, 4.000000, 4.000000, 4.000000
16.000000, 0.000000, 4702.563965, 4239.487305, 4058.461426, 4158.974121, 4306.666504, 0.000000, 8133.000000, 8348.000000, 0.000000, 0.000000, 0.000000, 0.000000, 228.300018, 1557649021.151181, 4.000000, 4.000000, 4.000000, 4.000000, 4.000000
17.000000, 0.000000, 4702.563965, 4243.589844, 4064.102539, 4155.384277, 4305.127930, 0.000000, 8135.000000, 8362.000000, 0.000000, 0.000000, 0.000000, 0.000000, 236.100006, 1557649021.158981, 4.000000, 4.000000, 4.000000, 4.000000, 4.000000
18.000000, 0.000000, 4682.563965, 4227.692383, 4026.153809, 4137.948730, 4288.717773, 0.000000, 8136.000000, 8358.000000, 0.000000, 0.000000, 0.000000, 0.000000, 244.100006, 1557649021.166981, 4.000000, 4.000000, 4.000000, 4.000000, 4.000000
19.000000, 0.000000, 4664.615234, 4219.487305, 3988.717773, 4131.794922, 4266.666504, 0.000000, 8140.000000, 8346.000000, 0.000000, 0.000000, 0.000000, 0.000000, 252.100006, 1557649021.174981, 4.000000, 4.000000, 4.000000, 4.000000, 4.000000
20.000000, 0.000000, 4652.307617, 4222.563965, 3995.384521, 4133.846191, 4254.871582, 0.000000, 8137.000000, 8352.000000, 0.000000, 0.000000, 0.000000, 0.000000, 260.000031, 1557649021.182881, 4.000000, 4.000000, 4.000000, 4.000000, 4.000000
21.000000, 0.000000, 4642.563965, 4222.563965, 4020.000000, 4142.563965, 4256.922852, 0.000000, 8136.000000, 8352.000000, 0.000000, 0.000000, 0.000000, 0.000000, 267.899994, 1557649021.190781, 4.000000, 4.000000, 4.000000, 4.000000, 4.000000
22.000000, 0.000000, 4645.641113, 4227.692383, 4033.845947, 4153.846191, 4265.127930, 0.000000, 8144.000000, 8347.000000, 0.000000, 0.000000, 0.000000, 0.000000, 275.699982, 1557649021.198581, 4.000000, 4.000000, 4.000000, 4.000000, 4.000000
23.000000, 0.000000, 4652.820313, 4228.205078, 4040.000000, 4148.205078, 4268.205078, 0.000000, 8142.000000, 8352.000000, 0.000000, 0.000000, 0.000000, 0.000000, 283.500031, 1557649021.206381, 4.000000, 4.000000, 4.000000, 4.000000, 4.000000
24.000000, 0.000000, 4643.076660, 4215.897461, 4048.205078, 4137.436035, 4260.000000, 0.000000, 8139.000000, 8357.000000, 0.000000, 0.000000, 0.000000, 0.000000, 291.199982, 1557649021.214081, 4.000000, 4.000000, 4.000000, 4.000000, 4.000000
25.000000, 0.000000, 4632.820313, 4216.922852, 4045.128174, 4141.025391, 4247.692383, 0.000000, 8148.000000, 8347.000000, 0.000000, 0.000000, 0.000000, 0.000000, 299.000031, 1557649021.221881, 4.000000, 4.000000, 4.000000, 4.000000, 4.000000
26.000000, 0.000000, 4637.948730, 4229.230469, 4031.794678, 4142.051270, 4247.692383, 0.000000, 8146.000000, 8348.000000, 0.000000, 0.000000, 0.000000, 0.000000, 306.899994, 1557649021.229781, 4.000000, 4.000000, 4.000000, 4.000000, 4.000000
27.000000, 0.000000, 4635.384277, 4222.563965, 4022.563965, 4134.358887, 4246.153809, 0.000000, 8145.000000, 8361.000000, 0.000000, 0.000000, 0.000000, 0.000000, 314.899994, 1557649021.237781, 4.000000, 4.000000, 4.000000, 4.000000, 4.000000
28.000000, 0.000000, 4624.615234, 4216.922852, 4025.640869, 4136.410156, 4236.922852, 0.000000, 8147.000000, 8359.000000, 0.000000, 0.000000, 0.000000, 0.000000, 322.899994, 1557649021.245781, 4.000000, 4.000000, 4.000000, 4.000000, 4.000000
29.000000, 0.000000, 4624.615234, 4230.769043, 4035.384521, 4138.461426, 4238.974121, 0.000000, 8147.000000, 8343.000000, 0.000000, 0.000000, 0.000000, 0.000000, 330.800018, 1557649021.253681, 4.000000, 4.000000, 4.000000, 4.000000, 4.000000
30.000000, 0.000000, 4626.153809, 4226.153809, 4032.307617, 4130.256348, 4237.436035, 0.000000, 8146.000000, 8356.000000, 0.000000, 0.000000, 0.000000, 0.000000, 338.600006, 1557649021.261481, 4.000000, 4.000000, 4.000000, 4.000000, 4.000000
31.000000, 0.000000, 4622.563965, 4215.384277, 4018.974365, 4132.307617, 4231.281738, 0.000000, 8148.000000, 8360.000000, 0.000000, 0.000000, 0.000000, 0.000000, 346.399994, 1557649021.269281, 4.000000, 4.000000, 4.000000, 4.000000, 4.000000
32.000000, 0.000000, 4632.820313, 4232.820313, 4011.281982, 4144.615234, 4240.000000, 0.000000, 8145.000000, 8350.000000, 0.000000, 0.000000, 0.000000, 0.000000, 354.199982, 1557649021.277081, 4.000000, 4.000000, 4.000000, 4.000000, 4.000000
33.000000, 0.000000, 4642.563965, 4245.641113, 4022.051270, 4153.846191, 4247.692383, 0.000000, 8148.000000, 8360.000000, 0.000000, 0.000000, 0.000000, 0.000000, 362.100006, 1557649021.284981, 4.000000, 4.000000, 4.000000, 4.000000, 4.000000
34.000000, 0.000000, 4633.333008, 4231.794922, 4035.384521, 4158.461426, 4235.384277, 0.000000, 8143.000000, 8359.000000, 0.000000, 0.000000, 0.000000, 0.000000, 370.000031, 1557649021.292881, 4.000000, 4.000000, 4.000000, 4.000000, 4.000000
35.000000, 0.000000, 4620.512695, 4226.153809, 4023.589600, 4148.717773, 4218.461426, 0.000000, 8138.000000, 8355.000000, 0.000000, 0.000000, 0.000000, 0.000000, 378.000031, 1557649021.300881, 4.000000, 4.000000, 4.000000, 4.000000, 4.000000
36.000000, 0.000000, 4614.358887, 4241.538574, 4008.717773, 4139.487305, 4219.487305, 0.000000, 8136.000000, 8358.000000, 0.000000, 0.000000, 0.000000, 0.000000, 386.000031, 1557649021.308881, 4.000000, 4.000000, 4.000000, 4.000000, 4.000000
37.000000, 0.000000, 4614.871582, 4249.743652, 4023.589600, 4150.256348, 4233.333008, 0.000000, 8139.000000, 8360.000000, 0.000000, 0.000000, 0.000000, 0.000000, 394.000031, 1557649021.316881, 4.000000, 4.000000, 4.000000, 4.000000, 4.000000
38.000000, 0.000000, 4622.051270, 4243.076660, 4037.948730, 4156.410156, 4235.384277, 0.000000, 8142.000000, 8354.000000, 0.000000, 0.000000, 0.000000, 0.000000, 401.899994, 1557649021.324781, 4.000000, 4.000000, 4.000000, 4.000000, 4.000000
39.000000, 0.000000, 4624.102539, 4244.615234, 4035.384521, 4151.281738, 4227.179199, 0.000000, 8134.000000, 8354.000000, 0.000000, 0.000000, 0.000000, 0.000000, 409.699982, 1557649021.332581, 4.000000, 4.000000, 4.000000, 4.000000, 4.000000
40.000000, 0.000000, 4619.487305, 4253.846191, 4044.102539, 4148.205078, 4228.205078, 0.000000, 8135.000000, 8364.000000, 0.000000, 0.000000, 0.000000, 0.000000, 417.500031, 1557649021.340381, 4.000000, 4.000000, 4.000000, 4.000000, 4.000000
41.000000, 0.000000, 4613.846191, 4249.743652, 4048.717773, 4144.615234, 4226.153809, 0.000000, 8135.000000, 8358.000000, 0.000000, 0.000000, 0.000000, 0.000000, 425.300018, 1557649021.348181, 4.000000, 4.000000, 4.000000, 4.000000, 4.000000
42.000000, 0.000000, 4609.743652, 4244.102539, 4028.717773, 4141.025391, 4215.897461, 0.000000, 8141.000000, 8350.000000, 0.000000, 0.000000, 0.000000, 0.000000, 433.100006, 1557649021.355981, 4.000000, 4.000000, 4.000000, 4.000000, 4.000000
43.000000, 0.000000, 4602.051270, 4247.692383, 4025.128174, 4141.025391, 4220.000000, 0.000000, 8142.000000, 8350.000000, 0.000000, 0.000000, 0.000000, 0.000000, 440.899994, 1557649021.363781, 4.000000, 4.000000, 4.000000, 4.000000, 4.000000
44.000000, 0.000000, 4597.948730, 4245.641113, 4056.410156, 4145.641113, 4222.563965, 0.000000, 8138.000000, 8358.000000, 0.000000, 0.000000, 0.000000, 0.000000, 448.899994, 1557649021.371781, 4.000000, 4.000000, 4.000000, 4.000000, 4.000000
45.000000, 0.000000, 4601.025391, 4241.025391, 4080.512695, 4149.230469, 4214.871582, 0.000000, 8138.000000, 8341.000000, 0.000000, 0.000000, 0.000000, 0.000000, 456.899994, 1557649021.379781, 4.000000, 4.000000, 4.000000, 4.000000, 4.000000
46.000000, 0.000000, 4600.512695, 4246.153809, 4073.333252, 4142.051270, 4217.436035, 0.000000, 8142.000000, 8347.000000, 0.000000, 0.000000, 0.000000, 0.000000, 464.899994, 1557649021.387781, 4.000000, 4.000000, 4.000000, 4.000000, 4.000000
47.000000, 0.000000, 4601.538574, 4254.871582, 4057.435791, 4135.384277, 4223.589844, 0.000000, 8143.000000, 8352.000000, 0.000000, 0.000000, 0.000000, 0.000000, 472.600006, 1557649021.395481, 4.000000, 4.000000, 4.000000, 4.000000, 4.000000
48.000000, 0.000000, 4598.974121, 4248.205078, 4061.538330, 4140.512695, 4214.871582, 0.000000, 8144.000000, 8349.000000, 0.000000, 0.000000, 0.000000, 0.000000, 480.399994, 1557649021.403281, 4.000000, 4.000000, 4.000000, 4.000000, 4.000000
49.000000, 0.000000, 4585.127930, 4233.333008, 4068.205078, 4142.563965, 4206.666504, 0.000000, 8150.000000, 8346.000000, 0.000000, 0.000000, 0.000000, 0.000000, 488.199982, 1557649021.411081, 4.000000, 4.000000, 4.000000, 4.000000, 4.000000
50.000000, 0.000000, 4577.435547, 4233.846191, 4048.205078, 4137.436035, 4207.179199, 0.000000, 8146.000000, 8350.000000, 0.000000, 0.000000, 0.000000, 0.000000, 496.000031, 1557649021.418881, 4.000000, 4.000000, 4.000000, 4.000000, 4.000000
51.000000, 0.000000, 4569.743652, 4244.615234, 4025.640869, 4129.230469, 4201.025391, 0.000000, 8146.000000, 8352.000000, 0.000000, 0.000000, 0.000000, 0.000000, 504.000031, 1557649021.426881, 4.000000, 4.000000, 4.000000, 4.000000, 4.000000
52.000000, 0.000000, 4561.025391, 4247.692383, 4042.051270, 4126.666504, 4196.922852, 0.000000, 8148.000000, 8349.000000, 0.000000, 0.000000, 0.000000, 0.000000, 511.899994, 1557649021.434781, 4.000000, 4.000000, 4.000000, 4.000000, 4.000000
53.000000, 0.000000, 4564.102539, 4246.666504, 4066.666504, 4132.307617, 4203.589844, 0.000000, 8151.000000, 8352.000000, 0.000000, 0.000000, 0.000000, 0.000000, 519.899994, 1557649021.442781, 4.000000, 4.000000, 4.000000, 4.000000, 4.000000
54.000000, 0.000000, 4566.153809, 4244.102539, 4050.769043, 4127.692383, 4200.512695, 0.000000, 8149.000000, 8357.000000, 0.000000, 0.000000, 0.000000, 0.000000, 527.899994, 1557649021.450781, 4.000000, 4.000000, 4.000000, 4.000000, 4.000000
55.000000, 0.000000, 4561.538574, 4246.666504, 4035.384521, 4123.589844, 4193.846191, 0.000000, 8149.000000, 8346.000000, 0.000000, 0.000000, 0.000000, 0.000000, 535.899994, 1557649021.458781, 4.000000, 4.000000, 4.000000, 4.000000, 4.000000
56.000000, 0.000000, 4568.717773, 4255.897461, 4054.358887, 4137.948730, 4204.102539, 0.000000, 8139.000000, 8347.000000, 0.000000, 0.000000, 0.000000, 0.000000, 543.600006, 1557649021.466481, 4.000000, 4.000000, 4.000000, 4.000000, 4.000000
57.000000, 0.000000, 4573.333008, 4253.333008, 4066.153809, 4145.127930, 4216.410156, 0.000000, 8137.000000, 8357.000000, 0.000000, 0.000000, 0.000000, 0.000000, 551.400006, 1557649021.474281, 4.000000, 4.000000, 4.000000, 4.000000, 4.000000
58.000000, 0.000000, 4566.153809, 4249.743652, 4057.435791, 4137.436035, 4216.922852, 0.000000, 8136.000000, 8356.000000, 0.000000, 0.000000, 0.000000, 0.000000, 559.400006, 1557649021.482281, 4.000000, 4.000000, 4.000000, 4.000000, 4.000000
59.000000, 0.000000, 4575.384277, 4262.051270, 4060.000000, 4135.384277, 4222.563965, 0.000000, 8140.000000, 8344.000000, 0.000000, 0.000000, 0.000000, 0.000000, 567.200006, 1557649021.490081, 4.000000, 4.000000, 4.000000, 4.000000, 4.000000
60.000000, 0.000000, 4587.692383, 4270.769043, 4066.666504, 4132.820313, 4231.794922, 0.000000, 8141.000000, 8356.000000, 0.000000, 0.000000, 0.000000, 0.000000, 575.100006, 1557649021.497981, 4.000000, 4.000000, 4.000000, 4.000000, 4.000000
61.000000, 0.000000, 4579.487305, 4260.000000, 4060.000000, 4127.179199, 4223.589844, 0.000000, 8137.000000, 8354.000000, 0.000000, 0.000000, 0.000000, 0.000000, 582.900005, 1557649021.505781, 4.000000, 4.000000, 4.000000, 4.000000, 4.000000
62.000000, 0.000000, 4555.897461, 4247.692383, 4048.205078, 4131.281738, 4201.538574, 0.000000, 8135.000000, 8353.000000, 0.000000, 0.000000, 0.000000, 0.000000, 590.900005, 1557649021.513781, 4.000000, 4.000000, 4.000000, 4.000000, 4.000000
63.000000, 0.000000, 4538.974121, 4245.641113, 4030.256348, 4137.436035, 4192.820313, 0.000000, 8137.000000, 8354.000000, 0.000000, 0.000000, 0.000000, 0.000000, 598.900005, 1557649021.521781, 4.000000, 4.000000, 4.000000, 4.000000, 4.000000
64.000000, 0.000000, 4544.102539, 4246.666504, 4027.179443, 4139.487305, 4204.615234, 500.000000, 8134.000000, 8351.000000, 0.000000, 0.000000, 0.000000, 0.000000, 606.700005, 1557649021.529581, 4.000000, 4.000000, 4.000000, 4.000000, 4.000000
65.000000, 0.000000, 4554.871582, 4247.179199, 4055.897217, 4138.461426, 4214.358887, 500.000000, 8140.000000, 8352.000000, 0.000000, 0.000000, 0.000000, 0.000000, 614.500008, 1557649021.537381, 4.000000, 4.000000, 4.000000, 4.000000, 4.000000
66.000000, 0.000000, 4557.435547, 4253.846191, 4077.948730, 4135.897461, 4217.436035, 16177.000000, 8138.000000, 8364.000000, 0.000000, 0.000000, 0.000000, 0.000000, 622.200005, 1557649021.545081, 4.000000, 4.000000, 4.000000, 4.000000, 4.000000
67.000000, 0.000000, 4560.000000, 4265.641113, 4069.743408, 4137.948730, 4224.615234, 500.000000, 8138.000000, 8361.000000, 0.000000, 0.000000, 0.000000, 0.000000, 630.000008, 1557649021.552881, 4.000000, 4.000000, 4.000000, 4.000000, 4.000000
68.000000, 0.000000, 4557.435547, 4268.717773, 4057.435791, 4145.127930, 4217.948730, 16146.000000, 8146.000000, 8353.000000, 0.000000, 0.000000, 0.000000, 0.000000, 638.000008, 1557649021.560881, 4.000000, 4.000000, 4.000000, 4.000000, 4.000000
69.000000, 0.000000, 4551.281738, 4266.153809, 4060.512695, 4140.512695, 4205.641113, 500.000000, 8150.000000, 8352.000000, 0.000000, 0.000000, 0.000000, 0.000000, 646.000008, 1557649021.568881, 4.000000, 4.000000, 4.000000, 4.000000, 4.000000
70.000000, 0.000000, 4550.769043, 4264.102539, 4061.025635, 4137.436035, 4216.922852, 16172.000000, 8145.000000, 8358.000000, 0.000000, 0.000000, 0.000000, 0.000000, 653.900009, 1557649021.576781, 4.000000, 4.000000, 4.000000, 4.000000, 4.000000
71.000000, 0.000000, 4543.076660, 4256.410156, 4046.666504, 4146.153809, 4215.384277, 500.000000, 8149.000000, 8357.000000, 0.000000, 0.000000, 0.000000, 0.000000, 661.900009, 1557649021.584781, 4.000000, 4.000000, 4.000000, 4.000000, 4.000000
72.000000, 0.000000, 4533.846191, 4261.538574, 4044.102539, 4147.692383, 4183.076660, 500.000000, 8152.000000, 8343.000000, 0.000000, 0.000000, 0.000000, 0.000000, 669.900009, 1557649021.592781, 4.000000, 4.000000, 4.000000, 4.000000, 4.000000
73.000000, 0.000000, 4538.974121, 4278.461426, 4056.410156, 4140.512695, 4176.922852, 16323.000000, 8143.000000, 8345.000000, 0.000000, 0.000000, 0.000000, 0.000000, 677.700012, 1557649021.600581, 4.000000, 4.000000, 4.000000, 4.000000, 4.000000
74.000000, 0.000000, 4536.410156, 4272.820313, 4049.743408, 4134.358887, 4193.846191, 500.000000, 8144.000000, 8351.000000, 0.000000, 0.000000, 0.000000, 0.000000, 685.500000, 1557649021.608381, 4.000000, 4.000000, 4.000000, 4.000000, 4.000000
75.000000, 0.000000, 4522.563965, 4263.076660, 4033.333252, 4128.205078, 4178.461426, 16180.000000, 8144.000000, 8345.000000, 0.000000, 0.000000, 0.000000, 0.000000, 693.200012, 1557649021.616081, 4.000000, 4.000000, 4.000000, 4.000000, 4.000000
76.000000, 0.000000, 4515.897461, 4274.871582, 4034.358887, 4122.563965, 4152.820313, 500.000000, 8145.000000, 8352.000000, 0.000000, 0.000000, 0.000000, 0.000000, 701.000000, 1557649021.623881, 4.000000, 4.000000, 4.000000, 4.000000, 4.000000
77.000000, 0.000000, 4517.948730, 4281.538574, 4036.923096, 4125.127930, 4160.512695, 500.000000, 8144.000000, 8356.000000, 0.000000, 0.000000, 0.000000, 0.000000, 709.000000, 1557649021.631881, 4.000000, 4.000000, 4.000000, 4.000000, 4.000000
78.000000, 0.000000, 4522.051270, 4275.897461, 4037.435791, 4125.641113, 4182.563965, 450.000000, 8149.000000, 8345.000000, 0.000000, 0.000000, 0.000000, 0.000000, 717.000000, 1557649021.639881, 4.000000, 4.000000, 4.000000, 4.000000, 4.000000
79.000000, 0.000000, 4516.922852, 4273.333008, 4036.410156, 4124.102539, 4177.436035, 16180.000000, 8142.000000, 8345.000000, 0.000000, 0.000000, 0.000000, 0.000000, 724.900009, 1557649021.647781, 4.000000, 4.000000, 4.000000, 4.000000, 4.000000
80.000000, 0.000000, 4500.512695, 4263.589844, 4010.769043, 4123.076660, 4151.281738, 450.000000, 8136.000000, 8359.000000, 0.000000, 0.000000, 0.000000, 0.000000, 732.900009, 1557649021.655781, 4.000000, 4.000000, 4.000000, 4.000000, 4.000000
81.000000, 0.000000, 4494.871582, 4256.922852, 3992.307617, 4120.000000, 4149.743652, 450.000000, 8144.000000, 8348.000000, 0.000000, 0.000000, 0.000000, 0.000000, 740.700012, 1557649021.663581, 4.000000, 4.000000, 4.000000, 4.000000, 4.000000
82.000000, 0.000000, 4508.205078, 4272.307617, 4014.871582, 4126.666504, 4169.743652, 450.000000, 8143.000000, 8346.000000, 0.000000, 0.000000, 0.000000, 0.000000, 748.500000, 1557649021.671381, 4.000000, 4.000000, 4.000000, 4.000000, 4.000000
83.000000, 0.000000, 4513.846191, 4282.563965, 4041.538330, 4128.205078, 4176.922852, 16180.000000, 8141.000000, 8353.000000, 0.000000, 0.000000, 0.000000, 0.000000, 756.300003, 1557649021.679181, 4.000000, 4.000000, 4.000000, 4.000000, 4.000000
84.000000, 0.000000, 4504.102539, 4277.436035, 4055.384521, 4119.487305, 4172.820313, 450.000000, 8143.000000, 8355.000000, 0.000000, 0.000000, 0.000000, 0.000000, 764.000000, 1557649021.686881, 4.000000, 4.000000, 4.000000, 4.000000, 4.000000
85.000000, 0.000000, 4510.256348, 4276.410156, 4071.281982, 4131.794922, 4182.051270, 450.000000, 8145.000000, 8349.000000, 0.000000, 0.000000, 0.000000, 0.000000, 772.000000, 1557649021.694881, 4.000000, 4.000000, 4.000000, 4.000000, 4.000000
86.000000, 0.000000, 4524.102539, 4284.102539, 4072.820313, 4144.102539, 4194.871582, 450.000000, 8144.000000, 8347.000000, 0.000000, 0.000000, 0.000000, 0.000000, 780.000000, 1557649021.702881, 4.000000, 4.000000, 4.000000, 4.000000, 4.000000
87.000000, 0.000000, 4508.205078, 4279.487305, 4049.230713, 4124.615234, 4186.153809, 16180.000000, 8139.000000, 8359.000000, 0.000000, 0.000000, 0.000000, 0.000000, 788.000000, 1557649021.710881, 4.000000, 4.000000, 4.000000, 4.000000, 4.000000
88.000000, 0.000000, 4484.615234, 4264.102539, 4027.692139, 4116.410156, 4167.179199, 450.000000, 8139.000000, 8355.000000, 0.000000, 0.000000, 0.000000, 0.000000, 796.000000, 1557649021.718881, 4.000000, 4.000000, 4.000000, 4.000000, 4.000000
89.000000, 0.000000, 4489.230469, 4272.307617, 4027.179443, 4134.358887, 4164.615234, 450.000000, 8140.000000, 8350.000000, 0.000000, 0.000000, 0.000000, 0.000000, 803.900009, 1557649021.726781, 4.000000, 4.000000, 4.000000, 4.000000, 4.000000
90.000000, 0.000000, 4497.948730, 4289.230469, 4032.307617, 4135.897461, 4177.436035, 450.000000, 8140.000000, 8355.000000, 0.000000, 0.000000, 0.000000, 0.000000, 811.700012, 1557649021.734581, 4.000000, 4.000000, 4.000000, 4.000000, 4.000000
91.000000, 0.000000, 4491.281738, 4286.666504, 4025.640869, 4130.256348, 4185.127930, 16180.000000, 8139.000000, 8359.000000, 0.000000, 0.000000, 0.000000, 0.000000, 819.500000, 1557649021.742381, 4.000000, 4.000000, 4.000000, 4.000000, 4.000000
92.000000, 0.000000, 4492.307617, 4281.025391, 4027.692139, 4140.000000, 4181.025391, 450.000000, 8133.000000, 8361.000000, 0.000000, 0.000000, 0.000000, 0.000000, 827.300018, 1557649021.750181, 4.000000, 4.000000, 4.000000, 4.000000, 4.000000
93.000000, 0.000000, 4494.358887, 4278.974121, 4050.769043, 4141.538574, 4170.256348, 450.000000, 8136.000000, 8366.000000, 0.000000, 0.000000, 0.000000, 0.000000, 835.000000, 1557649021.757881, 4.000000, 4.000000, 4.000000, 4.000000, 4.000000
94.000000, 0.000000, 4478.461426, 4269.743652, 4051.794678, 4133.333008, 4154.358887, 450.000000, 8136.000000, 8359.000000, 0.000000, 0.000000, 0.000000, 0.000000, 843.000000, 1557649021.765881, 4.000000, 4.000000, 4.000000, 4.000000, 4.000000
95.000000, 0.000000, 4458.461426, 4263.076660, 4013.845947, 4127.692383, 4129.230469, 16180.000000, 8136.000000, 8362.000000, 0.000000, 0.000000, 0.000000, 0.000000, 851.000000, 1557649021.773881, 4.000000, 4.000000, 4.000000, 4.000000, 4.000000
96.000000, 0.000000, 4450.256348, 4268.205078, 3993.333252, 4114.871582, 4112.307617, 450.000000, 8132.000000, 8368.000000, 0.000000, 0.000000, 0.000000, 0.000000, 859.000000, 1557649021.781881, 4.000000, 4.000000, 4.000000, 4.000000, 4.000000
97.000000, 0.000000, 4463.076660, 4277.948730, 4014.871582, 4114.871582, 4135.897461, 450.000000, 8125.000000, 8364.000000, 0.000000, 0.000000, 0.000000, 0.000000, 867.000000, 1557649021.789881, 4.000000, 4.000000, 4.000000, 4.000000, 4.000000
98.000000, 0.000000, 4479.487305, 4284.615234, 4040.000000, 4130.769043, 4166.153809, 450.000000, 8136.000000, 8359.000000, 0.000000, 0.000000, 0.000000, 0.000000, 874.700012, 1557649021.797581, 4.000000, 4.000000, 4.000000, 4.000000, 4.000000
99.000000, 0.000000, 4476.922852, 4278.461426, 4045.128174, 4129.230469, 4164.102539, 16180.000000, 8133.000000, 8356.000000, 0.000000, 0.000000, 0.000000, 0.000000, 882.500000, 1557649021.805381, 4.000000, 4.000000, 4.000000, 4.000000, 4.000000
100.000000, 0.000000, 4468.205078, 4271.281738, 4041.538330, 4121.538574, 4158.461426, 450.000000, 8133.000000, 8363.000000, 0.000000, 0.000000, 0.000000, 0.000000, 890.300018, 1557649021.813181, 4.000000, 4.000000, 4.000000, 4.000000, 4.000000
101.000000, 0.000000, 4479.487305, 4283.589844, 4045.128174, 4133.846191, 4170.256348, 450.000000, 8134.000000, 8368.000000, 0.000000, 0.000000, 0.000000, 0.000000, 898.200012, 1557649021.821081, 4.000000, 4.000000, 4.000000, 4.000000, 4.000000
102.000000, 0.000000, 4490.256348, 4289.230469, 4048.717773, 4146.153809, 4172.820313, 450.000000, 8136.000000, 8355.000000, 0.000000, 0.000000, 0.000000, 0.000000, 906.000000, 1557649021.828881, 4.000000, 4.000000, 4.000000, 4.000000, 4.000000
103.000000, 0.000000, 4476.922852, 4280.512695, 4031.794678, 4136.922852, 4155.384277, 16180.000000, 8139.000000, 8359.000000, 0.000000, 0.000000, 0.000000, 0.000000, 914.000000, 1557649021.836881, 4.000000, 4.000000, 4.000000, 4.000000, 4.000000
104.000000, 0.000000, 4461.538574, 4277.948730, 4013.845947, 4122.051270, 4139.487305, 450.000000, 8137.000000, 8360.000000, 0.000000, 0.000000, 0.000000, 0.000000, 922.000000, 1557649021.844881, 4.000000, 4.000000, 4.000000, 4.000000, 4.000000
105.000000, 0.000000, 4462.563965, 4271.794922, 4016.923096, 4123.076660, 4132.307617, 450.000000, 8138.000000, 8359.000000, 0.000000, 0.000000, 0.000000, 0.000000, 930.000000, 1557649021.852881, 4.000000, 4.000000, 4.000000, 4.000000, 4.000000
106.000000, 0.000000, 4460.512695, 4261.538574, 4024.615234, 4134.358887, 4137.436035, 450.000000, 8133.000000, 8361.000000, 0.000000, 0.000000, 0.000000, 0.000000, 937.800018, 1557649021.860681, 4.000000, 4.000000, 4.000000, 4.000000, 4.000000
107.000000, 0.000000, 4452.820313, 4267.692383, 4030.256348, 4129.230469, 4144.615234, 16180.000000, 8133.000000, 8351.000000, 0.000000, 0.000000, 0.000000, 0.000000, 945.500000, 1557649021.868381, 4.000000, 4.000000, 4.000000, 4.000000, 4.000000
108.000000, 0.000000, 4465.641113, 4288.717773, 4038.461426, 4120.512695, 4151.281738, 450.000000, 8134.000000, 8354.000000, 0.000000, 0.000000, 0.000000, 0.000000, 953.300018, 1557649021.876181, 4.000000, 4.000000, 4.000000, 4.000000, 4.000000
109.000000, 0.000000, 4480.512695, 4300.512695, 4029.230713, 4138.461426, 4167.179199, 450.000000, 8133.000000, 8359.000000, 0.000000, 0.000000, 0.000000, 0.000000, 961.100006, 1557649021.883981, 4.000000, 4.000000, 4.000000, 4.000000, 4.000000
110.000000, 0.000000, 4465.127930, 4292.307617, 3995.384521, 4144.102539, 4165.641113, 450.000000, 8127.000000, 8364.000000, 0.000000, 0.000000, 0.000000, 0.000000, 969.100006, 1557649021.891981, 4.000000, 4.000000, 4.000000, 4.000000, 4.000000
111.000000, 0.000000, 4451.281738, 4282.051270, 3978.461426, 4119.487305, 4142.051270, 16180.000000, 8130.000000, 8353.000000, 0.000000, 0.000000, 0.000000, 0.000000, 977.100006, 1557649021.899981, 4.000000, 4.000000, 4.000000, 4.000000, 4.000000
112.000000, 0.000000, 4460.512695, 4288.205078, 3996.410156, 4117.948730, 4136.922852, 450.000000, 8138.000000, 8350.000000, 0.000000, 0.000000, 0.000000, 0.000000, 985.000000, 1557649021.907881, 4.000000, 4.000000, 4.000000, 4.000000, 4.000000
113.000000, 0.000000, 4466.153809, 4298.974121, 4015.897217, 4138.461426, 4155.897461, 450.000000, 8125.000000, 8357.000000, 0.000000, 0.000000, 0.000000, 0.000000, 993.000000, 1557649021.915881, 4.000000, 4.000000, 4.000000, 4.000000, 4.000000
114.000000, 0.000000, 4456.410156, 4298.461426, 4016.923096, 4140.000000, 4166.153809, 450.000000, 8125.000000, 8364.000000, 0.000000, 0.000000, 0.000000, 1.000000, 0.800018, 1557649021.923681, 4.000000, 4.000000, 4.000000, 4.000000, 4.000000
115.000000, 0.000000, 4453.846191, 4291.281738, 4011.794678, 4136.410156, 4163.076660, 16180.000000, 8128.000000, 8352.000000, 0.000000, 0.000000, 0.000000, 1.000000, 8.600006, 1557649021.931481, 4.000000, 4.000000, 4.000000, 4.000000, 4.000000
116.000000, 0.000000, 4467.692383, 4289.743652, 4017.435791, 4136.922852, 4160.000000, 450.000000, 8131.000000, 8356.000000, 0.000000, 0.000000, 0.000000, 1.000000, 16.300018, 1557649021.939181, 4.000000, 4.000000, 4.000000, 4.000000, 4.000000
117.000000, 0.000000, 4472.820313, 4289.743652, 4029.743408, 4125.641113, 4153.333008, 450.000000, 8134.000000, 8361.000000, 0.000000, 0.000000, 0.000000, 1.000000, 24.100006, 1557649021.946981, 4.000000, 4.000000, 4.000000, 4.000000, 4.000000
118.000000, 0.000000, 4456.410156, 4285.641113, 4027.179443, 4121.025391, 4150.769043, 450.000000, 8135.000000, 8357.000000, 0.000000, 0.000000, 0.000000, 1.000000, 32.000000, 1557649021.954881, 4.000000, 4.000000, 4.000000, 4.000000, 4.000000
119.000000, 0.000000, 4444.615234, 4276.410156, 4016.410156, 4130.769043, 4145.127930, 16180.000000, 8133.000000, 8357.000000, 0.000000, 0.000000, 0.000000, 1.000000, 40.000000, 1557649021.962881, 4.000000, 4.000000, 4.000000, 4.000000, 4.000000
120.000000, 0.000000, 4453.846191, 4273.846191, 4023.076904, 4137.436035, 4140.000000, 450.000000, 8139.000000, 8354.000000, 0.000000, 0.000000, 0.000000, 1.000000, 48.000000, 1557649021.970881, 4.000000, 4.000000, 4.000000, 4.000000, 4.000000
121.000000, 0.000000, 4463.589844, 4285.641113, 4036.410156, 4138.974121, 4150.256348, 450.000000, 8139.000000, 8347.000000, 0.000000, 0.000000, 0.000000, 1.000000, 55.899994, 1557649021.978781, 4.000000, 4.000000, 4.000000, 4.000000, 4.000000
122.000000, 0.000000, 4461.025391, 4287.692383, 4040.000000, 4137.436035, 4156.922852, 450.000000, 8139.000000, 8353.000000, 0.000000, 0.000000, 0.000000, 1.000000, 63.899994, 1557649021.986781, 4.000000, 4.000000, 4.000000, 4.000000, 4.000000
123.000000, 0.000000, 4453.846191, 4280.000000, 4059.487061, 4134.358887, 4152.820313, 16180.000000, 8141.000000, 8353.000000, 0.000000, 0.000000, 0.000000, 1.000000, 71.699982, 1557649021.994581, 4.000000, 4.000000, 4.000000, 4.000000, 4.000000
124.000000, 0.000000, 4445.641113, 4280.000000, 4091.794678, 4135.384277, 4152.307617, 450.000000, 8151.000000, 8348.000000, 0.000000, 0.000000, 0.000000, 1.000000, 79.500031, 1557649022.002381, 4.000000, 4.000000, 4.000000, 4.000000, 4.000000
125.000000, 0.000000, 4447.179199, 4287.692383, 4108.205078, 4136.922852, 4156.410156, 450.000000, 8151.000000, 8346.000000, 0.000000, 0.000000, 0.000000, 1.000000, 87.199982, 1557649022.010081, 4.000000, 4.000000, 4.000000, 4.000000, 4.000000
126.000000, 0.000000, 4459.487305, 4297.436035, 4117.436035, 4140.512695, 4153.846191, 450.000000, 8153.000000, 8353.000000, 0.000000, 0.000000, 0.000000, 1.000000, 95.100006, 1557649022.017981, 4.000000, 4.000000, 4.000000, 4.000000, 4.000000
127.000000, 0.000000, 4461.025391, 4297.948730, 4124.102539, 4137.436035, 4151.794922, 16180.000000, 8152.000000, 8355.000000, 0.000000, 0.000000, 0.000000, 1.000000, 103.100006, 1557649022.025981, 4.000000, 4.000000, 4.000000, 4.000000, 4.000000
128.000000, 0.000000, 4438.461426, 4287.179199, 4110.769043, 4125.641113, 4150.256348, 500.000000, 8154.000000, 8346.000000, 0.000000, 0.000000, 0.000000, 1.000000, 111.100006, 1557649022.033981, 4.000000, 4.000000, 4.000000, 4.000000, 4.000000
0.000000, 0.000000, 4428.205078, 4280.512695, 4095.897217, 4123.589844, 4143.076660, 500.000000, 8151.000000, 8345.000000, 0.000000, 0.000000, 0.000000, 1.000000, 119.000031, 1557649022.041881, 4.000000, 4.000000, 4.000000, 4.000000, 4.000000
1.000000, 0.000000, 4445.127930, 4286.153809, 4110.769043, 4135.384277, 4145.641113, 500.000000, 8152.000000, 8356.000000, 0.000000, 0.000000, 0.000000, 1.000000, 126.899994, 1557649022.049781, 4.000000, 4.000000, 4.000000, 4.000000, 4.000000
2.000000, 0.000000, 4441.538574, 4283.076660, 4130.256348, 4140.000000, 4157.436035, 16185.000000, 8147.000000, 8354.000000, 0.000000, 0.000000, 0.000000, 1.000000, 134.699982, 1557649022.057581, 4.000000, 4.000000, 4.000000, 4.000000, 4.000000
3.000000, 0.000000, 4423.589844, 4274.871582, 4124.102539, 4136.922852, 4154.358887, 500.000000, 8140.000000, 8352.000000, 0.000000, 0.000000, 0.000000, 1.000000, 142.500031, 1557649022.065381, 4.000000, 4.000000, 4.000000, 4.000000, 4.000000
4.000000, 0.000000, 4427.179199, 4281.538574, 4107.692383, 4134.358887, 4135.384277, 16147.000000, 8137.000000, 8359.000000, 0.000000, 0.000000, 0.000000, 1.000000, 150.300018, 1557649022.073181, 4.000000, 4.000000, 4.000000, 4.000000, 4.000000
5.000000, 0.000000, 4420.000000, 4285.641113, 4089.230713, 4123.076660, 4123.076660, 500.000000, 8140.000000, 8350.000000, 0.000000, 0.000000, 0.000000, 1.000000, 158.100006, 1557649022.080981, 4.000000, 4.000000, 4.000000, 4.000000, 4.000000
6.000000, 0.000000, 4395.384277, 4275.897461, 4058.461426, 4120.512695, 4123.589844, 16156.000000, 8134.000000, 8351.000000, 0.000000, 0.000000, 0.000000, 1.000000, 166.000031, 1557649022.088881, 4.000000, 4.000000, 4.000000, 4.000000, 4.000000
7.000000, 0.000000, 4407.692383, 4274.358887, 4041.025635, 4133.846191, 4129.743652, 500.000000, 8128.000000, 8358.000000, 0.000000, 0.000000, 0.000000, 1.000000, 173.899994, 1557649022.096781, 4.000000, 4.000000, 4.000000, 4.000000, 4.000000
8.000000, 0.000000, 4437.948730, 4285.641113, 4068.717773, 4139.487305, 4140.512695, 500.000000, 8134.000000, 8347.000000, 0.000000, 0.000000, 0.000000, 1.000000, 181.899994, 1557649022.104781, 4.000000, 4.000000, 4.000000, 4.000000, 4.000000
9.000000, 0.000000, 4431.794922, 4294.358887, 4108.205078, 4139.487305, 4156.410156, 16323.000000, 8126.000000, 8344.000000, 0.000000, 0.000000, 0.000000, 1.000000, 189.899994, 1557649022.112781, 4.000000, 4.000000, 4.000000, 4.000000, 4.000000
10.000000, 0.000000, 4424.615234, 4295.897461, 4111.281738, 4145.641113, 4174.358887, 500.000000, 8124.000000, 8356.000000, 0.000000, 0.000000, 0.000000, 1.000000, 197.600006, 1557649022.120481, 4.000000, 4.000000, 4.000000, 4.000000, 4.000000
11.000000, 0.000000, 4442.051270, 4293.846191, 4092.820313, 4143.076660, 4176.922852, 16180.000000, 8126.000000, 8360.000000, 0.000000, 0.000000, 0.000000, 1.000000, 205.399994, 1557649022.128281, 4.000000, 4.000000, 4.000000, 4.000000, 4.000000
12.000000, 0.000000, 4439.487305, 4292.307617, 4091.794678, 4130.769043, 4155.384277, 500.000000, 8128.000000, 8349.000000, 0.000000, 0.000000, 0.000000, 1.000000, 213.199982, 1557649022.136081, 4.000000, 4.000000, 4.000000, 4.000000, 4.000000
13.000000, 0.000000, 4424.102539, 4297.948730, 4089.230713, 4130.769043, 4147.692383, 500.000000, 8126.000000, 8351.000000, 0.000000, 0.000000, 0.000000, 1.000000, 221.000031, 1557649022.143881, 4.000000, 4.000000, 4.000000, 4.000000, 4.000000
14.000000, 0.000000, 4438.974121, 4294.358887, 4066.666504, 4140.000000, 4168.205078, 450.000000, 8125.000000, 8357.000000, 0.000000, 0.000000, 0.000000, 1.000000, 229.000031, 1557649022.151881, 4.000000, 4.000000, 4.000000, 4.000000, 4.000000
15.000000, 0.000000, 4456.922852, 4281.538574, 4055.384521, 4140.000000, 4182.563965, 16180.000000, 8130.000000, 8356.000000, 0.000000, 0.000000, 0.000000, 1.000000, 236.899994, 1557649022.159781, 4.000000, 4.000000, 4.000000, 4.000000, 4.000000
16.000000, 0.000000, 4448.205078, 4284.615234, 4058.461426, 4134.871582, 4167.179199, 0.000000, 8133.000000, 8349.000000, 0.000000, 0.000000, 0.000000, 1.000000, 244.899994, 1557649022.167781, 4.000000, 4.000000, 4.000000, 4.000000, 4.000000
17.000000, 0.000000, 4438.461426, 4289.743652, 4056.410156, 4135.384277, 4152.820313, 0.000000, 8136.000000, 8356.000000, 0.000000, 0.000000, 0.000000, 1.000000, 252.899994, 1557649022.175781, 4.000000, 4.000000, 4.000000, 4.000000, 4.000000
18.000000, 0.000000, 4435.897461, 4281.538574, 4063.076904, 4142.563965, 4163.589844, 0.000000, 8135.000000, 8352.000000, 0.000000, 0.000000, 0.000000, 1.000000, 260.699982, 1557649022.183581, 4.000000, 4.000000, 4.000000, 4.000000, 4.000000
19.000000, 0.000000, 4427.692383, 4283.076660, 4074.871582, 4136.922852, 4169.230469, 0.000000, 8138.000000, 8348.000000, 0.000000, 0.000000, 0.000000, 1.000000, 268.399994, 1557649022.191281, 4.000000, 4.000000, 4.000000, 4.000000, 4.000000
20.000000, 0.000000, 4425.641113, 4293.333008, 4064.102539, 4122.563965, 4154.871582, 0.000000, 8136.000000, 8359.000000, 0.000000, 0.000000, 0.000000, 1.000000, 276.199982, 1557649022.199081, 4.000000, 4.000000, 4.000000, 4.000000, 4.000000
21.000000, 0.000000, 4428.717773, 4288.205078, 4042.563965, 4127.692383, 4148.205078, 0.000000, 8136.000000, 8345.000000, 0.000000, 0.000000, 0.000000, 1.000000, 284.000031, 1557649022.206881, 4.000000, 4.000000, 4.000000, 4.000000, 4.000000
22.000000, 0.000000, 4426.666504, 4286.153809, 4040.512695, 4138.461426, 4162.051270, 0.000000, 8145.000000, 8343.000000, 0.000000, 0.000000, 0.000000, 1.000000, 292.000031, 1557649022.214881, 4.000000, 4.000000, 4.000000, 4.000000, 4.000000
23.000000, 0.000000, 4427.179199, 4296.922852, 4041.538330, 4126.153809, 4165.641113, 0.000000, 8143.000000, 8351.000000, 0.000000, 0.000000, 0.000000, 1.000000, 299.899994, 1557649022.222781, 4.000000, 4.000000, 4.000000, 4.000000, 4.000000
24.000000, 0.000000, 4426.153809, 4296.410156, 4031.281982, 4115.897461, 4152.820313, 0.000000, 8139.000000, 8347.000000, 0.000000, 0.000000, 0.000000, 1.000000, 307.800018, 1557649022.230681, 4.000000, 4.000000, 4.000000, 4.000000, 4.000000
25.000000, 0.000000, 4427.179199, 4292.820313, 4034.358887, 4127.692383, 4149.230469, 0.000000, 8139.000000, 8338.000000, 0.000000, 0.000000, 0.000000, 1.000000, 315.800018, 1557649022.238681, 4.000000, 4.000000, 4.000000, 4.000000, 4.000000
26.000000, 0.000000, 4430.769043, 4303.589844, 4053.333252, 4138.974121, 4152.820313, 0.000000, 8140.000000, 8335.000000, 0.000000, 0.000000, 0.000000, 1.000000, 323.800018, 1557649022.246681, 4.000000, 4.000000, 4.000000, 4.000000, 4.000000
27.000000, 0.000000, 4429.743652, 4314.871582, 4069.230713, 4139.487305, 4161.025391, 0.000000, 8139.000000, 8343.000000, 0.000000, 0.000000, 0.000000, 1.000000, 331.600006, 1557649022.254481, 4.000000, 4.000000, 4.000000, 4.000000, 4.000000
28.000000, 0.000000, 4434.871582, 4314.871582, 4068.205078, 4137.436035, 4171.281738, 0.000000, 8139.000000, 8346.000000, 0.000000, 0.000000, 0.000000, 1.000000, 339.399994, 1557649022.262281, 4.000000, 4.000000, 4.000000, 4.000000, 4.000000
29.000000, 0.000000, 4441.025391, 4310.256348, 4060.000000, 4138.461426, 4169.230469, 0.000000, 8138.000000, 8342.000000, 0.000000, 0.000000, 0.000000, 1.000000, 347.100006, 1557649022.269981, 4.000000, 4.000000, 4.000000, 4.000000, 4.000000
30.000000, 0.000000, 4433.846191, 4312.820313, 4057.435791, 4134.358887, 4160.512695, 0.000000, 8136.000000, 8343.000000, 0.000000, 0.000000, 0.000000, 1.000000, 355.100006, 1557649022.277981, 4.000000, 4.000000, 4.000000, 4.000000, 4.000000
31.000000, 0.000000, 4424.615234, 4313.333008, 4059.487061, 4130.256348, 4159.487305, 0.000000, 8140.000000, 8344.000000, 0.000000, 0.000000, 0.000000, 1.000000, 363.100006, 1557649022.285981, 4.000000, 4.000000, 4.000000, 4.000000, 4.000000
32.000000, 0.000000, 4424.102539, 4302.051270, 4057.948730, 4136.922852, 4157.436035, 0.000000, 8136.000000, 8342.000000, 0.000000, 0.000000, 0.000000, 1.000000, 371.100006, 1557649022.293981, 4.000000, 4.000000, 4.000000, 4.000000, 4.000000
33.000000, 0.000000, 4414.358887, 4290.769043, 4044.102539, 4131.794922, 4151.281738, 0.000000, 8133.000000, 8342.000000, 0.000000, 0.000000, 0.000000, 1.000000, 379.000031, 1557649022.301881, 4.000000, 4.000000, 4.000000, 4.000000, 4.000000
34.000000, 0.000000, 4405.127930, 4298.461426, 4034.358887, 4116.410156, 4148.717773, 0.000000, 8132.000000, 8348.000000, 0.000000, 0.000000, 0.000000, 1.000000, 386.899994, 1557649022.309781, 4.000000, 4.000000, 4.000000, 4.000000, 4.000000
35.000000, 0.000000, 4410.256348, 4313.846191, 4039.487061, 4118.461426, 4149.230469, 0.000000, 8138.000000, 8342.000000, 0.000000, 0.000000, 0.000000, 1.000000, 394.899994, 1557649022.317781, 4.000000, 4.000000, 4.000000, 4.000000, 4.000000
36.000000, 0.000000, 4417.435547, 4322.051270, 4053.845947, 4132.820313, 4159.487305, 0.000000, 8136.000000, 8342.000000, 0.000000, 0.000000, 0.000000, 1.000000, 402.699982, 1557649022.325581, 4.000000, 4.000000, 4.000000, 4.000000, 4.000000
37.000000, 0.000000, 4423.589844, 4323.589844, 4066.153809, 4137.948730, 4174.871582, 0.000000, 8139.000000, 8352.000000, 0.000000, 0.000000, 0.000000, 1.000000, 410.500031, 1557649022.333381, 4.000000, 4.000000, 4.000000, 4.000000, 4.000000
38.000000, 0.000000, 4424.615234, 4316.922852, 4066.153809, 4140.000000, 4172.820313, 0.000000, 8145.000000, 8352.000000, 0.000000, 0.000000, 0.000000, 1.000000, 418.199982, 1557649022.341081, 4.000000, 4.000000, 4.000000, 4.000000, 4.000000
39.000000, 0.000000, 4416.410156, 4305.641113, 4062.563965, 4139.487305, 4159.487305, 0.000000, 8144.000000, 8348.000000, 0.000000, 0.000000, 0.000000, 1.000000, 426.000031, 1557649022.348881, 4.000000, 4.000000, 4.000000, 4.000000, 4.000000
40.000000, 0.000000, 4415.384277, 4308.717773, 4074.358887, 4134.358887, 4156.922852, 0.000000, 8136.000000, 8360.000000, 0.000000, 0.000000, 0.000000, 1.000000, 434.000031, 1557649022.356881, 4.000000, 4.000000, 4.000000, 4.000000, 4.000000
41.000000, 0.000000, 4424.615234, 4327.179199, 4103.589844, 4137.948730, 4166.153809, 0.000000, 8141.000000, 8357.000000, 0.000000, 0.000000, 0.000000, 1.000000, 442.000031, 1557649022.364881, 4.000000, 4.000000, 4.000000, 4.000000, 4.000000
42.000000, 0.000000, 4431.794922, 4332.820313, 4107.179199, 4143.589844, 4166.666504, 0.000000, 8147.000000, 8360.000000, 0.000000, 0.000000, 0.000000, 1.000000, 449.899994, 1557649022.372781, 4.000000, 4.000000, 4.000000, 4.000000, 4.000000
43.000000, 0.000000, 4430.256348, 4323.076660, 4077.948730, 4136.410156, 4154.871582, 0.000000, 8147.000000, 8359.000000, 0.000000, 0.000000, 0.000000, 1.000000, 457.899994, 1557649022.380781, 4.000000, 4.000000, 4.000000, 4.000000, 4.000000
44.000000, 0.000000, 4414.871582, 4319.487305, 4051.281982, 4121.538574, 4143.076660, 0.000000, 8153.000000, 8367.000000, 0.000000, 0.000000, 0.000000, 1.000000, 465.699982, 1557649022.388581, 4.000000, 4.000000, 4.000000, 4.000000, 4.000000
45.000000, 0.000000, 4397.948730, 4325.127930, 4033.333252, 4118.974121, 4142.563965, 0.000000, 8154.000000, 8361.000000, 0.000000, 0.000000, 0.000000, 1.000000, 473.500031, 1557649022.396381, 4.000000, 4.000000, 4.000000, 4.000000, 4.000000
46.000000, 0.000000, 4389.230469, 4326.666504, 4012.307617, 4124.102539, 4133.846191, 0.000000, 8146.000000, 8361.000000, 0.000000, 0.000000, 0.000000, 1.000000, 481.300018, 1557649022.404181, 4.000000, 4.000000, 4.000000, 4.000000, 4.000000
47.000000, 0.000000, 4375.897461, 4317.948730, 4005.128174, 4117.436035, 4119.487305, 0.000000, 8155.000000, 8359.000000, 0.000000, 0.000000, 0.000000, 1.000000, 489.000031, 1557649022.411881, 4.000000, 4.000000, 4.000000, 4.000000, 4.000000
48.000000, 0.000000, 4370.769043, 4308.717773, 4010.256348, 4117.436035, 4124.102539, 0.000000, 8154.000000, 8351.000000, 0.000000, 0.000000, 0.000000, 1.000000, 497.000031, 1557649022.419881, 4.000000, 4.000000, 4.000000, 4.000000, 4.000000
49.000000, 0.000000, 4387.692383, 4309.230469, 4008.717773, 4133.333008, 4136.922852, 0.000000, 8148.000000, 8354.000000, 0.000000, 0.000000, 0.000000, 1.000000, 505.000031, 1557649022.427881, 4.000000, 4.000000, 4.000000, 4.000000, 4.000000
50.000000, 0.000000, 4405.127930, 4323.076660, 4041.538330, 4147.692383, 4142.051270, 0.000000, 8147.000000, 8366.000000, 0.000000, 0.000000, 0.000000, 1.000000, 513.000031, 1557649022.435881, 4.000000, 4.000000, 4.000000, 4.000000, 4.000000
51.000000, 0.000000, 4396.922852, 4327.179199, 4103.076660, 4141.025391, 4131.794922, 0.000000, 8150.000000, 8365.000000, 0.000000, 0.000000, 0.000000, 1.000000, 521.000031, 1557649022.443881, 4.000000, 4.000000, 4.000000, 4.000000, 4.000000
52.000000, 0.000000, 4375.384277, 4319.487305, 4140.512695, 4125.641113, 4118.974121, 0.000000, 8143.000000, 8355.000000, 0.000000, 0.000000, 0.000000, 1.000000, 528.699982, 1557649022.451581, 4.000000, 4.000000, 4.000000, 4.000000, 4.000000
53.000000, 0.000000, 4373.846191, 4331.794922, 4175.897461, 4129.230469, 4129.743652, 0.000000, 8144.000000, 8363.000000, 0.000000, 0.000000, 0.000000, 1.000000, 536.500031, 1557649022.459381, 4.000000, 4.000000, 4.000000, 4.000000, 4.000000
54.000000, 0.000000, 4395.897461, 4345.641113, 4210.769043, 4139.487305, 4145.641113, 0.000000, 8151.000000, 8359.000000, 0.000000, 0.000000, 0.000000, 1.000000, 544.300018, 1557649022.467181, 4.000000, 4.000000, 4.000000, 4.000000, 4.000000
55.000000, 0.000000, 4402.563965, 4333.846191, 4211.281738, 4135.897461, 4138.461426, 0.000000, 8152.000000, 8355.000000, 0.000000, 0.000000, 0.000000, 1.000000, 552.100006, 1557649022.474981, 4.000000, 4.000000, 4.000000, 4.000000, 4.000000
56.000000, 0.000000, 4389.230469, 4327.179199, 4208.205078, 4133.846191, 4134.871582, 0.000000, 8146.000000, 8347.000000, 0.000000, 0.000000, 0.000000, 1.000000, 559.900006, 1557649022.482781, 4.000000, 4.000000, 4.000000, 4.000000, 4.000000
57.000000, 0.000000, 4388.717773, 4342.051270, 4217.436035, 4145.641113, 4150.256348, 0.000000, 8149.000000, 8357.000000, 0.000000, 0.000000, 0.000000, 1.000000, 567.900005, 1557649022.490781, 4.000000, 4.000000, 4.000000, 4.000000, 4.000000
58.000000, 0.000000, 4388.205078, 4336.922852, 4185.127930, 4147.179199, 4142.563965, 0.000000, 8147.000000, 8356.000000, 0.000000, 0.000000, 0.000000, 1.000000, 575.900005, 1557649022.498781, 4.000000, 4.000000, 4.000000, 4.000000, 4.000000
59.000000, 0.000000, 4374.871582, 4312.820313, 4152.307617, 4133.846191, 4122.051270, 0.000000, 8143.000000, 8351.000000, 0.000000, 0.000000, 0.000000, 1.000000, 583.900005, 1557649022.506781, 4.000000, 4.000000, 4.000000, 4.000000, 4.000000
60.000000, 0.000000, 4364.615234, 4306.153809, 4168.205078, 4126.153809, 4122.051270, 0.000000, 8140.000000, 8359.000000, 0.000000, 0.000000, 0.000000, 1.000000, 591.700005, 1557649022.514581, 4.000000, 4.000000, 4.000000, 4.000000, 4.000000
61.000000, 0.000000, 4363.589844, 4310.256348, 4173.846191, 4117.948730, 4118.461426, 0.000000, 8142.000000, 8357.000000, 0.000000, 0.000000, 0.000000, 1.000000, 599.400005, 1557649022.522281, 4.000000, 4.000000, 4.000000, 4.000000, 4.000000
62.000000, 0.000000, 4370.769043, 4309.230469, 4155.897461, 4116.410156, 4103.589844, 0.000000, 8140.000000, 8350.000000, 0.000000, 0.000000, 0.000000, 1.000000, 607.200005, 1557649022.530081, 4.000000, 4.000000, 4.000000, 4.000000, 4.000000
63.000000, 0.000000, 4375.897461, 4308.205078, 4144.615234, 4122.563965, 4094.871582, 0.000000, 8137.000000, 8362.000000, 0.000000, 0.000000, 0.000000, 1.000000, 615.000008, 1557649022.537881, 4.000000, 4.000000, 4.000000, 4.000000, 4.000000
64.000000, 0.000000, 4358.461426, 4310.769043, 4140.512695, 4119.487305, 4094.358887, 500.000000, 8129.000000, 8362.000000, 0.000000, 0.000000, 0.000000, 1.000000, 623.000008, 1557649022.545881, 4.000000, 4.000000, 4.000000, 4.000000, 4.000000
65.000000, 0.000000, 4340.000000, 4306.666504, 4142.563965, 4114.871582, 4103.076660, 500.000000, 8135.000000, 8350.000000, 0.000000, 0.000000, 0.000000, 1.000000, 630.900009, 1557649022.553781, 4.000000, 4.000000, 4.000000, 4.000000, 4.000000
66.000000, 0.000000, 4340.000000, 4302.563965, 4147.179199, 4111.794922, 4105.127930, 16188.000000, 8136.000000, 8354.000000, 0.000000, 0.000000, 0.000000, 1.000000, 638.900009, 1557649022.561781, 4.000000, 4.000000, 4.000000, 4.000000, 4.000000
67.000000, 0.000000, 4337.948730, 4308.205078, 4140.000000, 4107.179199, 4092.307617, 500.000000, 8133.000000, 8361.000000, 0.000000, 0.000000, 0.000000, 1.000000, 646.900009, 1557649022.569781, 4.000000, 4.000000, 4.000000, 4.000000, 4.000000
68.000000, 0.000000, 4344.102539, 4312.307617, 4145.127930, 4114.871582, 4102.051270, 16147.000000, 8134.000000, 8352.000000, 0.000000, 0.000000, 0.000000, 1.000000, 654.900009, 1557649022.577781, 4.000000, 4.000000, 4.000000, 4.000000, 4.000000
69.000000, 0.000000, 4370.256348, 4311.794922, 4180.512695, 4122.051270, 4134.871582, 500.000000, 8139.000000, 8351.000000, 0.000000, 0.000000, 0.000000, 1.000000, 662.700005, 1557649022.585581, 4.000000, 4.000000, 4.000000, 4.000000, 4.000000
70.000000, 0.000000, 4388.717773, 4310.256348, 4203.589844, 4115.897461, 4141.538574, 16151.000000, 8142.000000, 8363.000000, 0.000000, 0.000000, 0.000000, 1.000000, 670.400009, 1557649022.593281, 4.000000, 4.000000, 4.000000, 4.000000, 4.000000
71.000000, 0.000000, 4384.102539, 4311.281738, 4204.615234, 4118.974121, 4134.871582, 500.000000, 8146.000000, 8356.000000, 0.000000, 0.000000, 0.000000, 1.000000, 678.200012, 1557649022.601081, 4.000000, 4.000000, 4.000000, 4.000000, 4.000000
72.000000, 0.000000, 4380.000000, 4314.871582, 4202.051270, 4127.692383, 4145.641113, 500.000000, 8145.000000, 8349.000000, 0.000000, 0.000000, 0.000000, 1.000000, 686.000000, 1557649022.608881, 4.000000, 4.000000, 4.000000, 4.000000, 4.000000
73.000000, 0.000000, 4382.563965, 4316.922852, 4184.102539, 4116.410156, 4145.127930, 16323.000000, 8150.000000, 8354.000000, 0.000000, 0.000000, 0.000000, 1.000000, 693.900009, 1557649022.616781, 4.000000, 4.000000, 4.000000, 4.000000, 4.000000
74.000000, 0.000000, 4383.076660, 4322.563965, 4170.256348, 4112.820313, 4134.871582, 500.000000, 8154.000000, 8346.000000, 0.000000, 0.000000, 0.000000, 1.000000, 701.900009, 1557649022.624781, 4.000000, 4.000000, 4.000000, 4.000000, 4.000000
75.000000, 0.000000, 4383.589844, 4331.794922, 4186.153809, 4133.333008, 4141.538574, 16182.000000, 8154.000000, 8347.000000, 0.000000, 0.000000, 0.000000, 1.000000, 709.800003, 1557649022.632681, 4.000000, 4.000000, 4.000000, 4.000000, 4.000000
76.000000, 0.000000, 4387.179199, 4334.358887, 4203.589844, 4138.974121, 4143.076660, 500.000000, 8154.000000, 8357.000000, 0.000000, 0.000000, 0.000000, 1.000000, 717.800003, 1557649022.640681, 4.000000, 4.000000, 4.000000, 4.000000, 4.000000
77.000000, 0.000000, 4392.307617, 4330.256348, 4204.615234, 4127.692383, 4139.487305, 500.000000, 8157.000000, 8354.000000, 0.000000, 0.000000, 0.000000, 1.000000, 725.600006, 1557649022.648481, 4.000000, 4.000000, 4.000000, 4.000000, 4.000000
78.000000, 0.000000, 4392.307617, 4330.256348, 4209.743652, 4121.025391, 4148.717773, 450.000000, 8163.000000, 8345.000000, 0.000000, 0.000000, 0.000000, 1.000000, 733.400009, 1557649022.656281, 4.000000, 4.000000, 4.000000, 4.000000, 4.000000
79.000000, 0.000000, 4389.743652, 4330.256348, 4196.410156, 4122.051270, 4148.717773, 16182.000000, 8159.000000, 8344.000000, 0.000000, 0.000000, 0.000000, 1.000000, 741.100006, 1557649022.663981, 4.000000, 4.000000, 4.000000, 4.000000, 4.000000
80.000000, 0.000000, 4381.025391, 4325.641113, 4159.487305, 4125.127930, 4132.820313, 450.000000, 8154.000000, 8355.000000, 0.000000, 0.000000, 0.000000, 1.000000, 749.000000, 1557649022.671881, 4.000000, 4.000000, 4.000000, 4.000000, 4.000000
81.000000, 0.000000, 4367.692383, 4328.717773, 4136.410156, 4115.384277, 4120.000000, 450.000000, 8158.000000, 8359.000000, 0.000000, 0.000000, 0.000000, 1.000000, 757.000000, 1557649022.679881, 4.000000, 4.000000, 4.000000, 4.000000, 4.000000
82.000000, 0.000000, 4353.846191, 4327.692383, 4126.153809, 4099.487305, 4110.256348, 450.000000, 8155.000000, 8349.000000, 0.000000, 0.000000, 0.000000, 1.000000, 765.000000, 1557649022.687881, 4.000000, 4.000000, 4.000000, 4.000000, 4.000000
83.000000, 0.000000, 4346.666504, 4312.820313, 4118.974121, 4094.358887, 4102.051270, 16182.000000, 8152.000000, 8365.000000, 0.000000, 0.000000, 0.000000, 1.000000, 773.000000, 1557649022.695881, 4.000000, 4.000000, 4.000000, 4.000000, 4.000000
84.000000, 0.000000, 4345.641113, 4303.076660, 4117.948730, 4096.922852, 4107.179199, 450.000000, 8149.000000, 8357.000000, 0.000000, 0.000000, 0.000000, 1.000000, 780.900009, 1557649022.703781, 4.000000, 4.000000, 4.000000, 4.000000, 4.000000
85.000000, 0.000000, 4343.076660, 4305.127930, 4103.589844, 4092.307617, 4110.769043, 450.000000, 8144.000000, 8349.000000, 0.000000, 0.000000, 0.000000, 1.000000, 788.700012, 1557649022.711581, 4.000000, 4.000000, 4.000000, 4.000000, 4.000000
86.000000, 0.000000, 4342.563965, 4309.230469, 4077.948730, 4087.692139, 4102.563965, 450.000000, 8142.000000, 8359.000000, 0.000000, 0.000000, 0.000000, 1.000000, 796.500000, 1557649022.719381, 4.000000, 4.000000, 4.000000, 4.000000, 4.000000
87.000000, 0.000000, 4344.102539, 4305.641113, 4076.923096, 4088.717773, 4105.127930, 16182.000000, 8149.000000, 8352.000000, 0.000000, 0.000000, 0.000000, 1.000000, 804.300018, 1557649022.727181, 4.000000, 4.000000, 4.000000, 4.000000, 4.000000
88.000000, 0.000000, 4345.127930, 4307.179199, 4089.743408, 4094.871582, 4110.769043, 450.000000, 8143.000000, 8359.000000, 0.000000, 0.000000, 0.000000, 1.000000, 812.100006, 1557649022.734981, 4.000000, 4.000000, 4.000000, 4.000000, 4.000000
89.000000, 0.000000, 4339.487305, 4310.256348, 4084.615234, 4101.538574, 4100.512695, 450.000000, 8144.000000, 8362.000000, 0.000000, 0.000000, 0.000000, 1.000000, 820.000000, 1557649022.742881, 4.000000, 4.000000, 4.000000, 4.000000, 4.000000
90.000000, 0.000000, 4333.333008, 4303.589844, 4075.384521, 4101.538574, 4096.410156, 450.000000, 8142.000000, 8368.000000, 0.000000, 0.000000, 0.000000, 1.000000, 828.000000, 1557649022.750881, 4.000000, 4.000000, 4.000000, 4.000000, 4.000000
91.000000, 0.000000, 4336.922852, 4294.871582, 4074.871582, 4101.025391, 4105.127930, 16182.000000, 8141.000000, 8354.000000, 0.000000, 0.000000, 0.000000, 1.000000, 835.899994, 1557649022.758781, 4.000000, 4.000000, 4.000000, 4.000000, 4.000000
92.000000, 0.000000, 4344.615234, 4301.025391, 4072.307617, 4106.153809, 4108.205078, 450.000000, 8142.000000, 8359.000000, 0.000000, 0.000000, 0.000000, 1.000000, 843.899994, 1557649022.766781, 4.000000, 4.000000, 4.000000, 4.000000, 4.000000
93.000000, 0.000000, 4352.307617, 4317.436035, 4074.871582, 4111.794922, 4109.230469, 450.000000, 8139.000000, 8369.000000, 0.000000, 0.000000, 0.000000, 1.000000, 851.800018, 1557649022.774681, 4.000000, 4.000000, 4.000000, 4.000000, 4.000000
94.000000, 0.000000, 4350.256348, 4316.922852, 4077.948730, 4109.230469, 4110.256348, 450.000000, 8147.000000, 8368.000000, 0.000000, 0.000000, 0.000000, 1.000000, 859.600006, 1557649022.782481, 4.000000, 4.000000, 4.000000, 4.000000, 4.000000
95.000000, 0.000000, 4342.563965, 4308.205078, 4062.563965, 4106.666504, 4108.717773, 16182.000000, 8153.000000, 8362.000000, 0.000000, 0.000000, 0.000000, 1.000000, 867.399994, 1557649022.790281, 4.000000, 4.000000, 4.000000, 4.000000, 4.000000
96.000000, 0.000000, 4343.589844, 4313.846191, 4050.769043, 4113.846191, 4119.487305, 450.000000, 8154.000000, 8354.000000, 0.000000, 0.000000, 0.000000, 1.000000, 875.200012, 1557649022.798081, 4.000000, 4.000000, 4.000000, 4.000000, 4.000000
97.000000, 0.000000, 4347.179199, 4319.487305, 4053.845947, 4116.410156, 4120.512695, 450.000000, 8151.000000, 8368.000000, 0.000000, 0.000000, 0.000000, 1.000000, 883.100006, 1557649022.805981, 4.000000, 4.000000, 4.000000, 4.000000, 4.000000
98.000000, 0.000000, 4347.179199, 4318.461426, 4047.179443, 4113.333008, 4100.512695, 450.000000, 8156.000000, 8359.000000, 0.000000, 0.000000, 0.000000, 1.000000, 891.000000, 1557649022.813881, 4.000000, 4.000000, 4.000000, 4.000000, 4.000000
99.000000, 0.000000, 4345.641113, 4327.692383, 4037.435791, 4116.410156, 4104.615234, 16182.000000, 8150.000000, 8351.000000, 0.000000, 0.000000, 0.000000, 1.000000, 899.000000, 1557649022.821881, 4.000000, 4.000000, 4.000000, 4.000000, 4.000000
100.000000, 0.000000, 4335.384277, 4337.948730, 4042.563965, 4117.436035, 4124.615234, 450.000000, 8152.000000, 8354.000000, 0.000000, 0.000000, 0.000000, 1.000000, 907.000000, 1557649022.829881, 4.000000, 4.000000, 4.000000, 4.000000, 4.000000
101.000000, 0.000000, 4325.127930, 4327.692383, 4041.025635, 4104.102539, 4114.358887, 450.000000, 8154.000000, 8353.000000, 0.000000, 0.000000, 0.000000, 1.000000, 915.000000, 1557649022.837881, 4.000000, 4.000000, 4.000000, 4.000000, 4.000000
102.000000, 0.000000, 4337.948730, 4317.948730, 4032.820313, 4100.512695, 4100.000000, 450.000000, 8152.000000, 8350.000000, 0.000000, 0.000000, 0.000000, 1.000000, 922.700012, 1557649022.845581, 4.000000, 4.000000, 4.000000, 4.000000, 4.000000
103.000000, 0.000000, 4350.769043, 4324.102539, 4040.512695, 4111.281738, 4109.743652, 16182.000000, 8147.000000, 8353.000000, 0.000000, 0.000000, 0.000000, 1.000000, 930.500000, 1557649022.853381, 4.000000, 4.000000, 4.000000, 4.000000, 4.000000
104.000000, 0.000000, 4337.948730, 4326.153809, 4046.666504, 4105.641113, 4116.410156, 450.000000, 8150.000000, 8340.000000, 0.000000, 0.000000, 0.000000, 1.000000, 938.300018, 1557649022.861181, 4.000000, 4.000000, 4.000000, 4.000000, 4.000000
105.000000, 0.000000, 4331.794922, 4321.538574, 4032.820313, 4097.948730, 4111.281738, 450.000000, 8149.000000, 8336.000000, 0.000000, 0.000000, 0.000000, 1.000000, 946.100006, 1557649022.868981, 4.000000, 4.000000, 4.000000, 4.000000, 4.000000
106.000000, 0.000000, 4338.974121, 4320.512695, 4007.692139, 4104.102539, 4107.692383, 450.000000, 8151.000000, 8347.000000, 0.000000, 0.000000, 0.000000, 1.000000, 954.100006, 1557649022.876981, 4.000000, 4.000000, 4.000000, 4.000000, 4.000000
107.000000, 0.000000, 4338.461426, 4324.615234, 4004.102539, 4109.230469, 4107.692383, 16182.000000, 8146.000000, 8348.000000, 0.000000, 0.000000, 0.000000, 1.000000, 962.000000, 1557649022.884881, 4.000000, 4.000000, 4.000000, 4.000000, 4.000000
108.000000, 0.000000, 4336.410156, 4333.846191, 4014.871582, 4109.230469, 4108.205078, 450.000000, 8146.000000, 8341.000000, 0.000000, 0.000000, 0.000000, 1.000000, 970.000000, 1557649022.892881, 4.000000, 4.000000, 4.000000, 4.000000, 4.000000
109.000000, 0.000000, 4336.410156, 4337.436035, 4005.640869, 4106.666504, 4106.153809, 450.000000, 8149.000000, 8337.000000, 0.000000, 0.000000, 0.000000, 1.000000, 978.000000, 1557649022.900881, 4.000000, 4.000000, 4.000000, 4.000000, 4.000000
110.000000, 0.000000, 4340.512695, 4331.281738, 3998.974365, 4107.692383, 4104.102539, 450.000000, 8146.000000, 8350.000000, 0.000000, 0.000000, 0.000000, 1.000000, 985.800018, 1557649022.908681, 4.000000, 4.000000, 4.000000, 4.000000, 4.000000
111.000000, 0.000000, 4335.897461, 4321.025391, 4002.563965, 4116.410156, 4095.897217, 16182.000000, 8146.000000, 8349.000000, 0.000000, 0.000000, 0.000000, 1.000000, 993.600006, 1557649022.916481, 4.000000, 4.000000, 4.000000, 4.000000, 4.000000
112.000000, 0.000000, 4323.589844, 4318.974121, 3992.820313, 4121.025391, 4081.538330, 450.000000, 8140.000000, 8339.000000, 0.000000, 0.000000, 0.000000, 2.000000, 1.300018, 1557649022.924181, 4.000000, 4.000000, 4.000000, 4.000000, 4.000000
113.000000, 0.000000, 4336.922852, 4330.256348, 3993.333252, 4114.871582, 4093.845947, 450.000000, 8142.000000, 8347.000000, 0.000000, 0.000000, 0.000000, 2.000000, 9.100006, 1557649022.931981, 4.000000, 4.000000, 4.000000, 4.000000, 4.000000
114.000000, 0.000000, 4355.897461, 4332.820313, 4007.692139, 4108.717773, 4118.974121, 450.000000, 8144.000000, 8349.000000, 0.000000, 0.000000, 0.000000, 2.000000, 17.100006, 1557649022.939981, 4.000000, 4.000000, 4.000000, 4.000000, 4.000000
115.000000, 0.000000, 4330.256348, 4325.127930, 4000.512695, 4102.051270, 4103.589844, 16182.000000, 8144.000000, 8355.000000, 0.000000, 0.000000, 0.000000, 2.000000, 25.100006, 1557649022.947981, 4.000000, 4.000000, 4.000000, 4.000000, 4.000000
116.000000, 0.000000, 4305.127930, 4329.743652, 3993.333252, 4093.845947, 4080.000000, 450.000000, 8138.000000, 8353.000000, 0.000000, 0.000000, 0.000000, 2.000000, 32.899994, 1557649022.955781, 4.000000, 4.000000, 4.000000, 4.000000, 4.000000
117.000000, 0.000000, 4336.410156, 4332.820313, 4005.640869, 4099.487305, 4092.307617, 450.000000, 8140.000000, 8359.000000, 0.000000, 0.000000, 0.000000, 2.000000, 40.899994, 1557649022.963781, 4.000000, 4.000000, 4.000000, 4.000000, 4.000000
118.000000, 0.000000, 4364.102539, 4316.410156, 4004.102539, 4108.717773, 4100.000000, 450.000000, 8148.000000, 8350.000000, 0.000000, 0.000000, 0.000000, 2.000000, 48.700012, 1557649022.971581, 4.000000, 4.000000, 4.000000, 4.000000, 4.000000
119.000000, 0.000000, 4348.717773, 4309.230469, 3997.948730, 4105.127930, 4095.384521, 16182.000000, 8145.000000, 8360.000000, 0.000000, 0.000000, 0.000000, 2.000000, 56.500000, 1557649022.979381, 4.000000, 4.000000, 4.000000, 4.000000, 4.000000
120.000000, 0.000000, 4342.563965, 4323.076660, 4006.153809, 4103.076660, 4106.153809, 450.000000, 8139.000000, 8362.000000, 0.000000, 0.000000, 0.000000, 2.000000, 64.300018, 1557649022.987181, 4.000000, 4.000000, 4.000000, 4.000000, 4.000000
121.000000, 0.000000, 4357.435547, 4329.743652, 4007.179443, 4107.179199, 4113.846191, 450.000000, 8142.000000, 8352.000000, 0.000000, 0.000000, 0.000000, 2.000000, 72.000031, 1557649022.994881, 4.000000, 4.000000, 4.000000, 4.000000, 4.000000
122.000000, 0.000000, 4353.333008, 4325.641113, 4003.076904, 4109.230469, 4113.333008, 450.000000, 8149.000000, 8354.000000, 0.000000, 0.000000, 0.000000, 2.000000, 80.000031, 1557649023.002881, 4.000000, 4.000000, 4.000000, 4.000000, 4.000000
123.000000, 0.000000, 4342.563965, 4324.615234, 3996.923096, 4108.205078, 4119.487305, 16182.000000, 8144.000000, 8363.000000, 0.000000, 0.000000, 0.000000, 2.000000, 88.000031, 1557649023.010881, 4.000000, 4.000000, 4.000000, 4.000000, 4.000000
124.000000, 0.000000, 4353.333008, 4336.410156, 3990.256348, 4107.179199, 4123.076660, 450.000000, 8143.000000, 8363.000000, 0.000000, 0.000000, 0.000000, 2.000000, 96.000031, 1557649023.018881, 4.000000, 4.000000, 4.000000, 4.000000, 4.000000
125.000000, 0.000000, 4352.307617, 4333.333008, 3989.230713, 4105.127930, 4114.871582, 450.000000, 8138.000000, 8358.000000, 0.000000, 0.000000, 0.000000, 2.000000, 103.899994, 1557649023.026781, 4.000000, 4.000000, 4.000000, 4.000000, 4.000000
126.000000, 0.000000, 4331.794922, 4310.769043, 3987.179443, 4104.102539, 4102.563965, 450.000000, 8142.000000, 8362.000000, 0.000000, 0.000000, 0.000000, 2.000000, 111.899994, 1557649023.034781, 4.000000, 4.000000, 4.000000, 4.000000, 4.000000
127.000000, 0.000000, 4324.615234, 4304.615234, 3977.948730, 4099.487305, 4097.436035, 16182.000000, 8151.000000, 8364.000000, 0.000000, 0.000000, 0.000000, 2.000000, 119.699982, 1557649023.042581, 4.000000, 4.000000, 4.000000, 4.000000, 4.000000
128.000000, 0.000000, 4325.641113, 4311.794922, 3970.256348, 4089.230713, 4101.538574, 500.000000, 8144.000000, 8364.000000, 0.000000, 0.000000, 0.000000, 2.000000, 127.500031, 1557649023.050381, 4.000000, 4.000000, 4.000000, 4.000000, 4.000000
0.000000, 0.000000, 4319.487305, 4315.384277, 3978.974365, 4087.179443, 4105.127930, 500.000000, 8147.000000, 8365.000000, 0.000000, 0.000000, 0.000000, 2.000000, 135.300018, 1557649023.058181, 4.000000, 4.000000, 4.000000, 4.000000, 4.000000
1.000000, 0.000000, 4326.153809, 4328.205078, 3992.820313, 4102.051270, 4105.641113, 500.000000, 8147.000000, 8353.000000, 0.000000, 0.000000, 0.000000, 2.000000, 143.000031, 1557649023.065881, 4.000000, 4.000000, 4.000000, 4.000000, 4.000000
2.000000, 0.000000, 4330.769043, 4333.333008, 3981.538330, 4114.358887, 4101.025391, 16189.000000, 8155.000000, 8352.000000, 0.000000, 0.000000, 0.000000, 2.000000, 151.000031, 1557649023.073881, 4.000000, 4.000000, 4.000000, 4.000000, 4.000000
3.000000, 0.000000, 4311.281738, 4318.461426, 3954.871582, 4105.127930, 4090.769043, 500.000000, 8147.000000, 8363.000000, 0.000000, 0.000000, 0.000000, 2.000000, 159.000031, 1557649023.081881, 4.000000, 4.000000, 4.000000, 4.000000, 4.000000
4.000000, 0.000000, 4305.641113, 4319.487305, 3962.051270, 4096.410156, 4091.794678, 16146.000000, 8147.000000, 8359.000000, 0.000000, 0.000000, 0.000000, 2.000000, 167.000031, 1557649023.089881, 4.000000, 4.000000, 4.000000, 4.000000, 4.000000
5.000000, 0.000000, 4338.461426, 4344.102539, 3988.717773, 4104.615234, 4109.743652, 500.000000, 8145.000000, 8348.000000, 0.000000, 0.000000, 0.000000, 2.000000, 175.000031, 1557649023.097881, 4.000000, 4.000000, 4.000000, 4.000000, 4.000000
6.000000, 0.000000, 4355.897461, 4352.820313, 3983.589600, 4108.717773, 4111.281738, 16144.000000, 8149.000000, 8346.000000, 0.000000, 0.000000, 0.000000, 2.000000, 182.699982, 1557649023.105581, 4.000000, 4.000000, 4.000000, 4.000000, 4.000000
7.000000, 0.000000, 4344.615234, 4343.589844, 3965.128174, 4107.692383, 4099.487305, 500.000000, 8145.000000, 8360.000000, 0.000000, 0.000000, 0.000000, 2.000000, 190.500031, 1557649023.113381, 4.000000, 4.000000, 4.000000, 4.000000, 4.000000
8.000000, 0.000000, 4336.922852, 4343.076660, 3971.281982, 4110.256348, 4101.538574, 500.000000, 8140.000000, 8366.000000, 0.000000, 0.000000, 0.000000, 2.000000, 198.300018, 1557649023.121181, 4.000000, 4.000000, 4.000000, 4.000000, 4.000000
9.000000, 0.000000, 4330.769043, 4342.563965, 3975.897217, 4107.692383, 4098.461426, 16323.000000, 8143.000000, 8351.000000, 0.000000, 0.000000, 0.000000, 2.000000, 206.100006, 1557649023.128981, 4.000000, 4.000000, 4.000000, 4.000000, 4.000000
10.000000, 0.000000, 4321.538574, 4332.820313, 3961.025635, 4101.025391, 4077.948730, 500.000000, 8149.000000, 8348.000000, 0.000000, 0.000000, 0.000000, 2.000000, 214.000031, 1557649023.136881, 4.000000, 4.000000, 4.000000, 4.000000, 4.000000
11.000000, 0.000000, 4319.487305, 4323.589844, 3948.717773, 4108.205078, 4066.666504, 16186.000000, 8150.000000, 8360.000000, 0.000000, 0.000000, 0.000000, 2.000000, 222.000031, 1557649023.144881, 4.000000, 4.000000, 4.000000, 4.000000, 4.000000
12.000000, 0.000000, 4318.461426, 4320.000000, 3941.025635, 4122.051270, 4072.307617, 500.000000, 8150.000000, 8355.000000, 0.000000, 0.000000, 0.000000, 2.000000, 230.000031, 1557649023.152881, 4.000000, 4.000000, 4.000000, 4.000000, 4.000000
13.000000, 0.000000, 4316.410156, 4322.563965, 3937.435791, 4117.436035, 4082.051270, 500.000000, 8143.000000, 8346.000000, 0.000000, 0.000000, 0.000000, 2.000000, 238.000031, 1557649023.160881, 4.000000, 4.000000, 4.000000, 4.000000, 4.000000
14.000000, 0.000000, 4325.641113, 4330.769043, 3947.692139, 4108.717773, 4091.281982, 450.000000, 8150.000000, 8350.000000, 0.000000, 0.000000, 0.000000, 2.000000, 245.800018, 1557649023.168681, 4.000000, 4.000000, 4.000000, 4.000000, 4.000000
15.000000, 0.000000, 4333.333008, 4335.897461, 3963.076904, 4114.871582, 4093.333252, 16186.000000, 8148.000000, 8344.000000, 0.000000, 0.000000, 0.000000, 2.000000, 253.500031, 1557649023.176381, 4.000000, 4.000000, 4.000000, 4.000000, 4.000000
16.000000, 0.000000, 4335.384277, 4337.948730, 3969.743408, 4118.974121, 4090.769043, 0.000000, 8144.000000, 8346.000000, 0.000000, 0.000000, 0.000000, 2.000000, 261.300018, 1557649023.184181, 4.000000, 4.000000, 4.000000, 4.000000, 4.000000
17.000000, 0.000000, 4337.436035, 4337.436035, 3973.333252, 4115.384277, 4094.358887, 0.000000, 8142.000000, 8354.000000, 0.000000, 0.000000, 0.000000, 2.000000, 269.100006, 1557649023.191981, 4.000000, 4.000000, 4.000000, 4.000000, 4.000000
18.000000, 0.000000, 4332.307617, 4330.256348, 3971.794678, 4110.256348, 4091.794678, 0.000000, 8143.000000, 8342.000000, 0.000000, 0.000000, 0.000000, 2.000000, 277.000031, 1557649023.199881, 4.000000, 4.000000, 4.000000, 4.000000, 4.000000
19.000000, 0.000000, 4325.127930, 4324.102539, 3953.845947, 4108.205078, 4083.076904, 0.000000, 8140.000000, 8345.000000, 0.000000, 0.000000, 0.000000, 2.000000, 284.899994, 1557649023.207781, 4.000000, 4.000000, 4.000000, 4.000000, 4.000000
20.000000, 0.000000, 4312.820313, 4314.358887, 3937.948730, 4103.076660, 4082.051270, 0.000000, 8136.000000, 8363.000000, 0.000000, 0.000000, 0.000000, 2.000000, 292.899994, 1557649023.215781, 4.000000, 4.000000, 4.000000, 4.000000, 4.000000
21.000000, 0.000000, 4294.871582, 4307.179199, 3945.640869, 4097.948730, 4078.461426, 0.000000, 8137.000000, 8358.000000, 0.000000, 0.000000, 0.000000, 2.000000, 300.899994, 1557649023.223781, 4.000000, 4.000000, 4.000000, 4.000000, 4.000000
22.000000, 0.000000, 4300.000000, 4324.615234, 3968.717773, 4101.538574, 4073.845947, 0.000000, 8135.000000, 8347.000000, 0.000000, 0.000000, 0.000000, 2.000000, 308.899994, 1557649023.231781, 4.000000, 4.000000, 4.000000, 4.000000, 4.000000
23.000000, 0.000000, 4321.025391, 4338.974121, 3980.000000, 4106.666504, 4075.384521, 0.000000, 8139.000000, 8352.000000, 0.000000, 0.000000, 0.000000, 2.000000, 316.699982, 1557649023.239581, 4.000000, 4.000000, 4.000000, 4.000000, 4.000000
24.000000, 0.000000, 4324.615234, 4334.358887, 3971.281982, 4108.205078, 4075.384521, 0.000000, 8135.000000, 8355.000000, 0.000000, 0.000000, 0.000000, 2.000000, 324.399994, 1557649023.247281, 4.000000, 4.000000, 4.000000, 4.000000, 4.000000
25.000000, 0.000000, 4313.846191, 4337.436035, 3967.692139, 4105.127930, 4070.769043, 0.000000, 8132.000000, 8353.000000, 0.000000, 0.000000, 0.000000, 2.000000, 332.199982, 1557649023.255081, 4.000000, 4.000000, 4.000000, 4.000000, 4.000000
26.000000, 0.000000, 4306.666504, 4343.076660, 3981.538330, 4104.102539, 4073.845947, 0.000000, 8133.000000, 8349.000000, 0.000000, 0.000000, 0.000000, 2.000000, 340.000031, 1557649023.262881, 4.000000, 4.000000, 4.000000, 4.000000, 4.000000
27.000000, 0.000000, 4305.641113, 4339.487305, 3988.717773, 4107.179199, 4078.461426, 0.000000, 8132.000000, 8353.000000, 0.000000, 0.000000, 0.000000, 2.000000, 348.000031, 1557649023.270881, 4.000000, 4.000000, 4.000000, 4.000000, 4.000000
28.000000, 0.000000, 4309.230469, 4336.410156, 3974.871582, 4108.205078, 4073.333252, 0.000000, 8134.000000, 8349.000000, 0.000000, 0.000000, 0.000000, 2.000000, 356.000031, 1557649023.278881, 4.000000, 4.000000, 4.000000, 4.000000, 4.000000
29.000000, 0.000000, 4312.307617, 4333.846191, 3971.281982, 4103.076660, 4076.923096, 0.000000, 8138.000000, 8353.000000, 0.000000, 0.000000, 0.000000, 2.000000, 363.899994, 1557649023.286781, 4.000000, 4.000000, 4.000000, 4.000000, 4.000000
30.000000, 0.000000, 4315.897461, 4336.922852, 3995.384521, 4104.615234, 4098.461426, 0.000000, 8136.000000, 8356.000000, 0.000000, 0.000000, 0.000000, 2.000000, 371.899994, 1557649023.294781, 4.000000, 4.000000, 4.000000, 4.000000, 4.000000
31.000000, 0.000000, 4330.769043, 4354.871582, 4018.461426, 4111.794922, 4116.922852, 0.000000, 8146.000000, 8345.000000, 0.000000, 0.000000, 0.000000, 2.000000, 379.899994, 1557649023.302781, 4.000000, 4.000000, 4.000000, 4.000000, 4.000000
32.000000, 0.000000, 4334.358887, 4358.461426, 4021.025635, 4104.102539, 4109.230469, 0.000000, 8150.000000, 8346.000000, 0.000000, 0.000000, 0.000000, 2.000000, 387.699982, 1557649023.310581, 4.000000, 4.000000, 4.000000, 4.000000, 4.000000
33.000000, 0.000000, 4309.230469, 4340.512695, 4021.025635, 4097.436035, 4086.666504, 0.000000, 8148.000000, 8356.000000, 0.000000, 0.000000, 0.000000, 2.000000, 395.399994, 1557649023.318281, 4.000000, 4.000000, 4.000000, 4.000000, 4.000000
34.000000, 0.000000, 4296.922852, 4338.974121, 4023.589600, 4108.717773, 4084.615234, 0.000000, 8141.000000, 8354.000000, 0.000000, 0.000000, 0.000000, 2.000000, 403.199982, 1557649023.326081, 4.000000, 4.000000, 4.000000, 4.000000, 4.000000
35.000000, 0.000000, 4307.179199, 4349.230469, 4016.410156, 4118.461426, 4092.307617, 0.000000, 8146.000000, 8345.000000, 0.000000, 0.000000, 0.000000, 2.000000, 411.000031, 1557649023.333881, 4.000000, 4.000000, 4.000000, 4.000000, 4.000000
36.000000, 0.000000, 4301.538574, 4335.384277, 4004.102539, 4110.769043, 4080.000000, 0.000000, 8153.000000, 8345.000000, 0.000000, 0.000000, 0.000000, 2.000000, 419.000031, 1557649023.341881, 4.000000, 4.000000, 4.000000, 4.000000, 4.000000
37.000000, 0.000000, 4286.153809, 4317.436035, 3995.897217, 4101.538574, 4067.179443, 0.000000, 8149.000000, 8353.000000, 0.000000, 0.000000, 0.000000, 2.000000, 427.000031, 1557649023.349881, 4.000000, 4.000000, 4.000000, 4.000000, 4.000000
38.000000, 0.000000, 4292.820313, 4331.281738, 3989.230713, 4104.102539, 4081.025635, 0.000000, 8154.000000, 8353.000000, 0.000000, 0.000000, 0.000000, 2.000000, 434.899994, 1557649023.357781, 4.000000, 4.000000, 4.000000, 4.000000, 4.000000
39.000000, 0.000000, 4300.000000, 4344.102539, 3991.281982, 4107.692383, 4100.000000, 0.000000, 8150.000000, 8353.000000, 0.000000, 0.000000, 0.000000, 2.000000, 442.899994, 1557649023.365781, 4.000000, 4.000000, 4.000000, 4.000000, 4.000000
40.000000, 0.000000, 4292.820313, 4332.307617, 4003.076904, 4107.692383, 4094.358887, 0.000000, 8151.000000, 8352.000000, 0.000000, 0.000000, 0.000000, 2.000000, 450.699982, 1557649023.373581, 4.000000, 4.000000, 4.000000, 4.000000, 4.000000
41.000000, 0.000000, 4289.743652, 4322.051270, 3995.897217, 4109.230469, 4085.128174, 0.000000, 8150.000000, 8357.000000, 0.000000, 0.000000, 0.000000, 2.000000, 458.500031, 1557649023.381381, 4.000000, 4.000000, 4.000000, 4.000000, 4.000000
42.000000, 0.000000, 4284.615234, 4322.563965, 3980.000000, 4102.563965, 4087.179443, 0.000000, 8151.000000, 8345.000000, 0.000000, 0.000000, 0.000000, 2.000000, 466.199982, 1557649023.389081, 4.000000, 4.000000, 4.000000, 4.000000, 4.000000
43.000000, 0.000000, 4279.487305, 4325.127930, 3997.948730, 4095.897217, 4085.128174, 0.000000, 8148.000000, 8360.000000, 0.000000, 0.000000, 0.000000, 2.000000, 474.000031, 1557649023.396881, 4.000000, 4.000000, 4.000000, 4.000000, 4.000000
44.000000, 0.000000, 4286.666504, 4328.717773, 4012.820313, 4102.051270, 4078.461426, 0.000000, 8154.000000, 8354.000000, 0.000000, 0.000000, 0.000000, 2.000000, 482.000031, 1557649023.404881, 4.000000, 4.000000, 4.000000, 4.000000, 4.000000
45.000000, 0.000000, 4283.076660, 4323.589844, 3984.102539, 4104.615234, 4075.897217, 0.000000, 8149.000000, 8348.000000, 0.000000, 0.000000, 0.000000, 2.000000, 490.000031, 1557649023.412881, 4.000000, 4.000000, 4.000000, 4.000000, 4.000000
46.000000, 0.000000, 4264.102539, 4306.666504, 3965.640869, 4094.871582, 4070.256348, 0.000000, 8143.000000, 8354.000000, 0.000000, 0.000000, 0.000000, 2.000000, 497.899994, 1557649023.420781, 4.000000, 4.000000, 4.000000, 4.000000, 4.000000
47.000000, 0.000000, 4264.102539, 4301.538574, 3989.743408, 4089.743408, 4065.128174, 0.000000, 8142.000000, 8353.000000, 0.000000, 0.000000, 0.000000, 2.000000, 505.800018, 1557649023.428681, 4.000000, 4.000000, 4.000000, 4.000000, 4.000000
48.000000, 0.000000, 4280.512695, 4310.256348, 4009.230713, 4093.333252, 4073.845947, 0.000000, 8149.000000, 8344.000000, 0.000000, 0.000000, 0.000000, 2.000000, 513.800018, 1557649023.436681, 4.000000, 4.000000, 4.000000, 4.000000, 4.000000
49.000000, 0.000000, 4282.051270, 4304.102539, 3996.923096, 4095.897217, 4072.307617, 0.000000, 8145.000000, 8347.000000, 0.000000, 0.000000, 0.000000, 2.000000, 521.600006, 1557649023.444481, 4.000000, 4.000000, 4.000000, 4.000000, 4.000000
50.000000, 0.000000, 4274.358887, 4292.307617, 3984.102539, 4096.410156, 4052.820313, 0.000000, 8148.000000, 8354.000000, 0.000000, 0.000000, 0.000000, 2.000000, 529.399994, 1557649023.452281, 4.000000, 4.000000, 4.000000, 4.000000, 4.000000
51.000000, 0.000000, 4277.436035, 4302.563965, 3993.845947, 4107.692383, 4059.487061, 0.000000, 8147.000000, 8356.000000, 0.000000, 0.000000, 0.000000, 2.000000, 537.199982, 1557649023.460081, 4.000000, 4.000000, 4.000000, 4.000000, 4.000000
52.000000, 0.000000, 4286.666504, 4315.897461, 4005.128174, 4116.922852, 4075.384521, 0.000000, 8147.000000, 8346.000000, 0.000000, 0.000000, 0.000000, 2.000000, 545.000031, 1557649023.467881, 4.000000, 4.000000, 4.000000, 4.000000, 4.000000
53.000000, 0.000000, 4280.512695, 4315.384277, 4002.051270, 4109.230469, 4064.102539, 0.000000, 8141.000000, 8348.000000, 0.000000, 0.000000, 0.000000, 2.000000, 553.000006, 1557649023.475881, 4.000000, 4.000000, 4.000000, 4.000000, 4.000000
54.000000, 0.000000, 4264.102539, 4317.436035, 3986.153809, 4094.871582, 4043.589600, 0.000000, 8143.000000, 8355.000000, 0.000000, 0.000000, 0.000000, 2.000000, 561.000006, 1557649023.483881, 4.000000, 4.000000, 4.000000, 4.000000, 4.000000
55.000000, 0.000000, 4260.000000, 4318.461426, 3973.845947, 4092.307617, 4035.384521, 0.000000, 8141.000000, 8348.000000, 0.000000, 0.000000, 0.000000, 2.000000, 569.000006, 1557649023.491881, 4.000000, 4.000000, 4.000000, 4.000000, 4.000000
56.000000, 0.000000, 4265.641113, 4312.307617, 3982.051270, 4094.358887, 4039.487061, 0.000000, 8139.000000, 8351.000000, 0.000000, 0.000000, 0.000000, 2.000000, 576.900005, 1557649023.499781, 4.000000, 4.000000, 4.000000, 4.000000, 4.000000
57.000000, 0.000000, 4262.051270, 4305.641113, 3988.205078, 4089.230713, 4044.615234, 0.000000, 8133.000000, 8347.000000, 0.000000, 0.000000, 0.000000, 2.000000, 584.700005, 1557649023.507581, 4.000000, 4.000000, 4.000000, 4.000000, 4.000000
58.000000, 0.000000, 4261.025391, 4296.922852, 3977.435791, 4090.256348, 4040.000000, 0.000000, 8139.000000, 8344.000000, 0.000000, 0.000000, 0.000000, 2.000000, 592.500008, 1557649023.515381, 4.000000, 4.000000, 4.000000, 4.000000, 4.000000
59.000000, 0.000000, 4268.717773, 4295.384277, 3975.897217, 4101.538574, 4043.076904, 0.000000, 8134.000000, 8353.000000, 0.000000, 0.000000, 0.000000, 2.000000, 600.300007, 1557649023.523181, 4.000000, 4.000000, 4.000000, 4.000000, 4.000000
60.000000, 0.000000, 4268.205078, 4313.846191, 3981.025635, 4108.717773, 4058.461426, 0.000000, 8139.000000, 8354.000000, 0.000000, 0.000000, 0.000000, 2.000000, 608.100006, 1557649023.530981, 4.000000, 4.000000, 4.000000, 4.000000, 4.000000
61.000000, 0.000000, 4261.538574, 4327.179199, 3972.307617, 4096.922852, 4055.897217, 0.000000, 8145.000000, 8345.000000, 0.000000, 0.000000, 0.000000, 2.000000, 616.000008, 1557649023.538881, 4.000000, 4.000000, 4.000000, 4.000000, 4.000000
62.000000, 0.000000, 4263.076660, 4320.000000, 3977.435791, 4086.153809, 4044.102539, 0.000000, 8144.000000, 8342.000000, 0.000000, 0.000000, 0.000000, 2.000000, 624.000008, 1557649023.546881, 4.000000, 4.000000, 4.000000, 4.000000, 4.000000
63.000000, 0.000000, 4265.127930, 4315.897461, 3998.461426, 4093.333252, 4049.230713, 0.000000, 8144.000000, 8356.000000, 0.000000, 0.000000, 0.000000, 2.000000, 632.000008, 1557649023.554881, 4.000000, 4.000000, 4.000000, 4.000000, 4.000000
64.000000, 0.000000, 4255.384277, 4308.717773, 3988.205078, 4094.871582, 4045.128174, 500.000000, 8139.000000, 8354.000000, 0.000000, 0.000000, 0.000000, 2.000000, 640.000008, 1557649023.562881, 4.000000, 4.000000, 4.000000, 4.000000, 4.000000
65.000000, 0.000000, 4246.153809, 4296.922852, 3970.769043, 4088.205078, 4037.948730, 500.000000, 8141.000000, 8346.000000, 0.000000, 0.000000, 0.000000, 2.000000, 647.900009, 1557649023.570781, 4.000000, 4.000000, 4.000000, 4.000000, 4.000000
66.000000, 0.000000, 4255.384277, 4301.538574, 3979.487061, 4089.230713, 4056.410156, 16189.000000, 8142.000000, 8349.000000, 0.000000, 0.000000, 0.000000, 2.000000, 655.700005, 1557649023.578581, 4.000000, 4.000000, 4.000000, 4.000000, 4.000000
67.000000, 0.000000, 4266.666504, 4310.256348, 3983.589600, 4098.461426, 4070.769043, 500.000000, 8140.000000, 8346.000000, 0.000000, 0.000000, 0.000000, 2.000000, 663.500008, 1557649023.586381, 4.000000, 4.000000, 4.000000, 4.000000, 4.000000
68.000000, 0.000000, 4265.127930, 4308.205078, 3971.794678, 4109.230469, 4058.974365, 16146.000000, 8138.000000, 8349.000000, 0.000000, 0.000000, 0.000000, 2.000000, 671.300003, 1557649023.594181, 4.000000, 4.000000, 4.000000, 4.000000, 4.000000
69.000000, 0.000000, 4263.076660, 4308.717773, 3969.230713, 4108.205078, 4050.256348, 500.000000, 8137.000000, 8352.000000, 0.000000, 0.000000, 0.000000, 2.000000, 679.100006, 1557649023.601981, 4.000000, 4.000000, 4.000000, 4.000000, 4.000000
70.000000, 0.000000, 4259.487305, 4308.205078, 3978.461426, 4095.897217, 4051.281982, 16139.000000, 8135.000000, 8360.000000, 0.000000, 0.000000, 0.000000, 2.000000, 687.000000, 1557649023.609881, 4.000000, 4.000000, 4.000000, 4.000000, 4.000000
71.000000, 0.000000, 4250.769043, 4304.615234, 3974.358887, 4095.384521, 4048.717773, 500.000000, 8143.000000, 8350.000000, 0.000000, 0.000000, 0.000000, 2.000000, 695.000000, 1557649023.617881, 4.000000, 4.000000, 4.000000, 4.000000, 4.000000
72.000000, 0.000000, 4249.230469, 4313.333008, 3969.230713, 4106.666504, 4050.769043, 500.000000, 8142.000000, 8345.000000, 0.000000, 0.000000, 0.000000, 2.000000, 703.000000, 1557649023.625881, 4.000000, 4.000000, 4.000000, 4.000000, 4.000000
73.000000, 0.000000, 4250.256348, 4318.974121, 3981.538330, 4109.743652, 4047.692139, 16323.000000, 8145.000000, 8359.000000, 0.000000, 0.000000, 0.000000, 2.000000, 710.800003, 1557649023.633681, 4.000000, 4.000000, 4.000000, 4.000000, 4.000000
74.000000, 0.000000, 4242.563965, 4308.717773, 3977.948730, 4104.102539, 4034.358887, 500.000000, 8146.000000, 8349.000000, 0.000000, 0.000000, 0.000000, 2.000000, 718.600006, 1557649023.641481, 4.000000, 4.000000, 4.000000, 4.000000, 4.000000
75.000000, 0.000000, 4251.281738, 4309.743652, 3956.410156, 4105.127930, 4037.435791, 16187.000000, 8142.000000, 8352.000000, 0.000000, 0.000000, 0.000000, 2.000000, 726.300003, 1557649023.649181, 4.000000, 4.000000, 4.000000, 4.000000, 4.000000
76.000000, 0.000000, 4272.307617, 4316.922852, 3956.410156, 4107.179199, 4053.333252, 500.000000, 8139.000000, 8360.000000, 0.000000, 0.000000, 0.000000, 2.000000, 734.100006, 1557649023.656981, 4.000000, 4.000000, 4.000000, 4.000000, 4.000000
77.000000, 0.000000, 4272.307617, 4308.205078, 3968.717773, 4100.512695, 4049.230713, 500.000000, 8143.000000, 8364.000000, 0.000000, 0.000000, 0.000000, 2.000000, 742.100006, 1557649023.664981, 4.000000, 4.000000, 4.000000, 4.000000, 4.000000
78.000000, 0.000000, 4263.076660, 4307.179199, 3971.281982, 4099.487305, 4043.076904, 450.000000, 8147.000000, 8351.000000, 0.000000, 0.000000, 0.000000, 2.000000, 749.900009, 1557649023.672781, 4.000000, 4.000000, 4.000000, 4.000000, 4.000000
79.000000, 0.000000, 4265.641113, 4328.717773, 3971.281982, 4098.461426, 4053.845947, 16187.000000, 8147.000000, 8356.000000, 0.000000, 0.000000, 0.000000, 2.000000, 757.800003, 1557649023.680681, 4.000000, 4.000000, 4.000000, 4.000000, 4.000000
80.000000, 0.000000, 4265.641113, 4337.948730, 3963.589600, 4092.820313, 4060.000000, 450.000000, 8143.000000, 8366.000000, 0.000000, 0.000000, 0.000000, 2.000000, 765.800003, 1557649023.688681, 4.000000, 4.000000, 4.000000, 4.000000, 4.000000
81.000000, 0.000000, 4260.512695, 4330.256348, 3957.435791, 4097.436035, 4064.615234, 450.000000, 8152.000000, 8368.000000, 0.000000, 0.000000, 0.000000, 2.000000, 773.800003, 1557649023.696681, 4.000000, 4.000000, 4.000000, 4.000000, 4.000000
82.000000, 0.000000, 4265.127930, 4334.358887, 3966.153809, 4109.230469, 4069.743408, 450.000000, 8150.000000, 8362.000000, 0.000000, 0.000000, 0.000000, 2.000000, 781.600006, 1557649023.704481, 4.000000, 4.000000, 4.000000, 4.000000, 4.000000
83.000000, 0.000000, 4265.127930, 4335.897461, 3970.256348, 4101.025391, 4053.845947, 16187.000000, 8155.000000, 8355.000000, 0.000000, 0.000000, 0.000000, 2.000000, 789.400009, 1557649023.712281, 4.000000, 4.000000, 4.000000, 4.000000, 4.000000
84.000000, 0.000000, 4250.769043, 4318.461426, 3972.820313, 4084.102539, 4029.743408, 450.000000, 8158.000000, 8354.000000, 0.000000, 0.000000, 0.000000, 2.000000, 797.100006, 1557649023.719981, 4.000000, 4.000000, 4.000000, 4.000000, 4.000000
85.000000, 0.000000, 4246.666504, 4310.256348, 3992.820313, 4094.871582, 4031.794678, 450.000000, 8153.000000, 8352.000000, 0.000000, 0.000000, 0.000000, 2.000000, 805.000000, 1557649023.727881, 4.000000, 4.000000, 4.000000, 4.000000, 4.000000
86.000000, 0.000000, 4256.410156, 4311.794922, 3999.487061, 4109.230469, 4051.281982, 450.000000, 8150.000000, 8359.000000, 0.000000, 0.000000, 0.000000, 2.000000, 813.000000, 1557649023.735881, 4.000000, 4.000000, 4.000000, 4.000000, 4.000000
87.000000, 0.000000, 4260.000000, 4310.769043, 3978.974365, 4097.436035, 4052.307617, 16187.000000, 8150.000000, 8362.000000, 0.000000, 0.000000, 0.000000, 2.000000, 821.000000, 1557649023.743881, 4.000000, 4.000000, 4.000000, 4.000000, 4.000000
88.000000, 0.000000, 4265.127930, 4318.461426, 3968.205078, 4090.256348, 4046.666504, 450.000000, 8150.000000, 8353.000000, 0.000000, 0.000000, 0.000000, 2.000000, 828.800018, 1557649023.751681, 4.000000, 4.000000, 4.000000, 4.000000, 4.000000
89.000000, 0.000000, 4278.974121, 4330.256348, 3980.000000, 4105.641113, 4060.512695, 450.000000, 8152.000000, 8352.000000, 0.000000, 0.000000, 0.000000, 2.000000, 836.700012, 1557649023.759581, 4.000000, 4.000000, 4.000000, 4.000000, 4.000000
90.000000, 0.000000, 4272.820313, 4326.153809, 3989.743408, 4112.307617, 4071.281982, 450.000000, 8145.000000, 8364.000000, 0.000000, 0.000000, 0.000000, 2.000000, 844.500000, 1557649023.767381, 4.000000, 4.000000, 4.000000, 4.000000, 4.000000
91.000000, 0.000000, 4256.922852, 4315.897461, 3975.897217, 4097.948730, 4057.948730, 16187.000000, 8143.000000, 8352.000000, 0.000000, 0.000000, 0.000000, 2.000000, 852.300018, 1557649023.775181, 4.000000, 4.000000, 4.000000, 4.000000, 4.000000
92.000000, 0.000000, 4270.769043, 4312.307617, 3951.281982, 4096.922852, 4049.230713, 450.000000, 8142.000000, 8356.000000, 0.000000, 0.000000, 0.000000, 2.000000, 860.100006, 1557649023.782981, 4.000000, 4.000000, 4.000000, 4.000000, 4.000000
93.000000, 0.000000, 4281.025391, 4315.384277, 3954.358887, 4115.384277, 4054.358887, 450.000000, 8139.000000, 8363.000000, 0.000000, 0.000000, 0.000000, 2.000000, 868.000000, 1557649023.790881, 4.000000, 4.000000, 4.000000, 4.000000, 4.000000
94.000000, 0.000000, 4264.102539, 4321.025391, 3982.051270, 4125.127930, 4051.281982, 450.000000, 8144.000000, 8370.000000, 0.000000, 0.000000, 0.000000, 2.000000, 876.000000, 1557649023.798881, 4.000000, 4.000000, 4.000000, 4.000000, 4.000000
95.000000, 0.000000, 4268.717773, 4323.076660, 3988.717773, 4118.974121, 4057.435791, 16187.000000, 8137.000000, 8362.000000, 0.000000, 0.000000, 0.000000, 2.000000, 884.000000, 1557649023.806881, 4.000000, 4.000000, 4.000000, 4.000000, 4.000000
96.000000, 0.000000, 4286.153809, 4325.641113, 3977.435791, 4112.820313, 4058.461426, 450.000000, 8132.000000, 8365.000000, 0.000000, 0.000000, 0.000000, 2.000000, 892.000000, 1557649023.814881, 4.000000, 4.000000, 4.000000, 4.000000, 4.000000
97.000000, 0.000000, 4271.281738, 4323.076660, 3979.487061, 4106.153809, 4028.717773, 450.000000, 8134.000000, 8362.000000, 0.000000, 0.000000, 0.000000, 2.000000, 900.000000, 1557649023.822881, 4.000000, 4.000000, 4.000000, 4.000000, 4.000000
98.000000, 0.000000, 4248.717773, 4311.794922, 3982.563965, 4097.436035, 4009.230713, 450.000000, 8138.000000, 8360.000000, 0.000000, 0.000000, 0.000000, 2.000000, 907.700012, 1557649023.830581, 4.000000, 4.000000, 4.000000, 4.000000, 4.000000
99.000000, 0.000000, 4247.179199, 4309.743652, 3974.871582, 4102.051270, 4014.871582, 16187.000000, 8133.000000, 8366.000000, 0.000000, 0.000000, 0.000000, 2.000000, 915.500000, 1557649023.838381, 4.000000, 4.000000, 4.000000, 4.000000, 4.000000
100.000000, 0.000000, 4246.153809, 4316.922852, 3972.820313, 4103.589844, 4009.743408, 450.000000, 8137.000000, 8357.000000, 0.000000, 0.000000, 0.000000, 2.000000, 923.300018, 1557649023.846181, 4.000000, 4.000000, 4.000000, 4.000000, 4.000000
101.000000, 0.000000, 4243.076660, 4319.487305, 3973.333252, 4091.794678, 3999.487061, 450.000000, 8146.000000, 8353.000000, 0.000000, 0.000000, 0.000000, 2.000000, 931.100006, 1557649023.853981, 4.000000, 4.000000, 4.000000, 4.000000, 4.000000
102.000000, 0.000000, 4247.692383, 4323.076660, 3971.281982, 4094.358887, 4008.717773, 450.000000, 8146.000000, 8356.000000, 0.000000, 0.000000, 0.000000, 2.000000, 938.899994, 1557649023.861781, 4.000000, 4.000000, 4.000000, 4.000000, 4.000000
103.000000, 0.000000, 4249.230469, 4335.384277, 3982.563965, 4108.717773, 4023.076904, 16187.000000, 8141.000000, 8365.000000, 0.000000, 0.000000, 0.000000, 2.000000, 946.899994, 1557649023.869781, 4.000000, 4.000000, 4.000000, 4.000000, 4.000000
104.000000, 0.000000, 4250.256348, 4335.897461, 3985.640869, 4109.230469, 4020.000000, 450.000000, 8144.000000, 8355.000000, 0.000000, 0.000000, 0.000000, 2.000000, 954.899994, 1557649023.877781, 4.000000, 4.000000, 4.000000, 4.000000, 4.000000
105.000000, 0.000000, 4250.769043, 4323.589844, 3967.692139, 4100.512695, 4010.256348, 450.000000, 8141.000000, 8348.000000, 0.000000, 0.000000, 0.000000, 2.000000, 962.899994, 1557649023.885781, 4.000000, 4.000000, 4.000000, 4.000000, 4.000000
106.000000, 0.000000, 4248.205078, 4317.436035, 3955.897461, 4098.974121, 4010.769043, 450.000000, 8144.000000, 8367.000000, 0.000000, 0.000000, 0.000000, 2.000000, 970.700012, 1557649023.893581, 4.000000, 4.000000, 4.000000, 4.000000, 4.000000
107.000000, 0.000000, 4244.615234, 4317.436035, 3957.948730, 4095.384521, 4011.794678, 16187.000000, 8133.000000, 8362.000000, 0.000000, 0.000000, 0.000000, 2.000000, 978.399994, 1557649023.901281, 4.000000, 4.000000, 4.000000, 4.000000, 4.000000
108.000000, 0.000000, 4241.025391, 4321.025391, 3966.666504, 4092.820313, 4006.666504, 450.000000, 8138.000000, 8353.000000, 0.000000, 0.000000, 0.000000, 2.000000, 986.200012, 1557649023.909081, 4.000000, 4.000000, 4.000000, 4.000000, 4.000000
109.000000, 0.000000, 4237.948730, 4325.641113, 3970.769043, 4095.384521, 4009.230713, 450.000000, 8137.000000, 8341.000000, 0.000000, 0.000000, 0.000000, 2.000000, 994.100006, 1557649023.916981, 4.000000, 4.000000, 4.000000, 4.000000, 4.000000
110.000000, 0.000000, 4229.743652, 4317.436035, 3965.128174, 4094.358887, 4009.230713, 450.000000, 8145.000000, 8351.000000, 0.000000, 0.000000, 0.000000, 3.000000, 2.100006, 1557649023.924981, 4.000000, 4.000000, 4.000000, 4.000000, 4.000000
111.000000, 0.000000, 4222.563965, 4305.641113, 3973.333252, 4090.256348, 4005.640869, 16187.000000, 8142.000000, 8349.000000, 0.000000, 0.000000, 0.000000, 3.000000, 10.100006, 1557649023.932981, 4.000000, 4.000000, 4.000000, 4.000000, 4.000000
112.000000, 0.000000, 4226.666504, 4309.743652, 3994.358887, 4087.692139, 4014.871582, 450.000000, 8144.000000, 8349.000000, 0.000000, 0.000000, 0.000000, 3.000000, 18.000000, 1557649023.940881, 4.000000, 4.000000, 4.000000, 4.000000, 4.000000
113.000000, 0.000000, 4232.820313, 4312.820313, 3994.871582, 4089.743408, 4022.563965, 450.000000, 8147.000000, 8346.000000, 0.000000, 0.000000, 0.000000, 3.000000, 26.000000, 1557649023.948881, 4.000000, 4.000000, 4.000000, 4.000000, 4.000000
114.000000, 0.000000, 4234.358887, 4311.794922, 3992.820313, 4093.333252, 4019.487061, 450.000000, 8151.000000, 8339.000000, 0.000000, 0.000000, 0.000000, 3.000000, 34.000000, 1557649023.956881, 4.000000, 4.000000, 4.000000, 4.000000, 4.000000
115.000000, 0.000000, 4232.307617, 4313.333008, 3994.358887, 4095.384521, 4021.025635, 16187.000000, 8150.000000, 8337.000000, 0.000000, 0.000000, 0.000000, 3.000000, 41.800018, 1557649023.964681, 4.000000, 4.000000, 4.000000, 4.000000, 4.000000
116.000000, 0.000000, 4223.589844, 4301.025391, 3973.845947, 4091.794678, 4016.923096, 450.000000, 8153.000000, 8344.000000, 0.000000, 0.000000, 0.000000, 3.000000, 49.500000, 1557649023.972381, 4.000000, 4.000000, 4.000000, 4.000000, 4.000000
117.000000, 0.000000, 4224.615234, 4294.871582, 3968.717773, 4090.769043, 4018.974365, 450.000000, 8153.000000, 8342.000000, 0.000000, 0.000000, 0.000000, 3.000000, 57.300018, 1557649023.980181, 4.000000, 4.000000, 4.000000, 4.000000, 4.000000
118.000000, 0.000000, 4244.102539, 4318.461426, 4001.538330, 4097.436035, 4041.025635, 450.000000, 8162.000000, 8331.000000, 0.000000, 0.000000, 0.000000, 3.000000, 65.100006, 1557649023.987981, 4.000000, 4.000000, 4.000000, 4.000000, 4.000000
119.000000, 0.000000, 4254.871582, 4330.769043, 4022.563965, 4099.487305, 4048.205078, 16187.000000, 8157.000000, 8339.000000, 0.000000, 0.000000, 0.000000, 3.000000, 73.000031, 1557649023.995881, 4.000000, 4.000000, 4.000000, 4.000000, 4.000000
120.000000, 0.000000, 4249.743652, 4314.358887, 4023.076904, 4096.922852, 4031.794678, 450.000000, 8158.000000, 8349.000000, 0.000000, 0.000000, 0.000000, 3.000000, 81.000031, 1557649024.003881, 4.000000, 4.000000, 4.000000, 4.000000, 4.000000
121.000000, 0.000000, 4245.641113, 4305.641113, 4030.256348, 4093.845947, 4015.384521, 450.000000, 8170.000000, 8340.000000, 0.000000, 0.000000, 0.000000, 3.000000, 88.899994, 1557649024.011781, 4.000000, 4.000000, 4.000000, 4.000000, 4.000000
122.000000, 0.000000, 4244.102539, 4314.871582, 4031.281982, 4083.076904, 4008.717773, 450.000000, 8156.000000, 8344.000000, 0.000000, 0.000000, 0.000000, 3.000000, 96.899994, 1557649024.019781, 4.000000, 4.000000, 4.000000, 4.000000, 4.000000
123.000000, 0.000000, 4232.307617, 4313.333008, 4018.974365, 4083.076904, 4001.538330, 16187.000000, 8157.000000, 8347.000000, 0.000000, 0.000000, 0.000000, 3.000000, 104.699982, 1557649024.027581, 4.000000, 4.000000, 4.000000, 4.000000, 4.000000
124.000000, 0.000000, 4219.487305, 4303.589844, 4008.205078, 4102.051270, 3995.897217, 450.000000, 8162.000000, 8344.000000, 0.000000, 0.000000, 0.000000, 3.000000, 112.500031, 1557649024.035381, 4.000000, 4.000000, 4.000000, 4.000000, 4.000000
125.000000, 0.000000, 4217.436035, 4311.794922, 4002.563965, 4104.615234, 4000.512695, 450.000000, 8155.000000, 8343.000000, 0.000000, 0.000000, 0.000000, 3.000000, 120.199982, 1557649024.043081, 4.000000, 4.000000, 4.000000, 4.000000, 4.000000
126.000000, 0.000000, 4220.000000, 4317.948730, 3993.333252, 4090.769043, 4002.563965, 450.000000, 8147.000000, 8356.000000, 0.000000, 0.000000, 0.000000, 3.000000, 128.199982, 1557649024.051081, 4.000000, 4.000000, 4.000000, 4.000000, 4.000000
127.000000, 0.000000, 4214.871582, 4293.333008, 3978.974365, 4086.666504, 3990.256348, 16187.000000, 8153.000000, 8350.000000, 0.000000, 0.000000, 0.000000, 3.000000, 136.100006, 1557649024.058981, 4.000000, 4.000000, 4.000000, 4.000000, 4.000000
128.000000, 0.000000, 4203.076660, 4280.000000, 3982.563965, 4086.153809, 3972.307617, 500.000000, 8147.000000, 8345.000000, 0.000000, 0.000000, 0.000000, 3.000000, 144.100006, 1557649024.066981, 4.000000, 4.000000, 4.000000, 4.000000, 4.000000
0.000000, 0.000000, 4197.948730, 4291.794922, 3996.410156, 4083.076904, 3974.358887, 500.000000, 8145.000000, 8353.000000, 0.000000, 0.000000, 0.000000, 3.000000, 152.100006, 1557649024.074981, 4.000000, 4.000000, 4.000000, 4.000000, 4.000000
1.000000, 0.000000, 4202.051270, 4286.153809, 3982.563965, 4087.692139, 3995.384521, 500.000000, 8144.000000, 8360.000000, 0.000000, 0.000000, 0.000000, 3.000000, 160.000031, 1557649024.082881, 4.000000, 4.000000, 4.000000, 4.000000, 4.000000
2.000000, 0.000000, 4212.307617, 4281.025391, 3969.230713, 4094.358887, 4010.769043, 16189.000000, 8146.000000, 8355.000000, 0.000000, 0.000000, 0.000000, 3.000000, 167.800018, 1557649024.090681, 4.000000, 4.000000, 4.000000, 4.000000, 4.000000
3.000000, 0.000000, 4217.948730, 4291.794922, 3986.666504, 4093.333252, 4012.820313, 500.000000, 8144.000000, 8343.000000, 0.000000, 0.000000, 0.000000, 3.000000, 175.600006, 1557649024.098481, 4.000000, 4.000000, 4.000000, 4.000000, 4.000000
4.000000, 0.000000, 4216.410156, 4283.076660, 3985.128174, 4090.769043, 4004.615234, 16146.000000, 8146.000000, 8353.000000, 0.000000, 0.000000, 0.000000, 3.000000, 183.399994, 1557649024.106281, 4.000000, 4.000000, 4.000000, 4.000000, 4.000000
5.000000, 0.000000, 4214.871582, 4269.230469, 3956.923096, 4090.256348, 3990.256348, 500.000000, 8147.000000, 8342.000000, 0.000000, 0.000000, 0.000000, 3.000000, 191.300018, 1557649024.114181, 4.000000, 4.000000, 4.000000, 4.000000, 4.000000
6.000000, 0.000000, 4214.871582, 4282.051270, 3959.487061, 4094.871582, 3986.666504, 16139.000000, 8154.000000, 8345.000000, 0.000000, 0.000000, 0.000000, 3.000000, 199.000031, 1557649024.121881, 4.000000, 4.000000, 4.000000, 4.000000, 4.000000
7.000000, 0.000000, 4215.897461, 4285.127930, 3977.435791, 4100.000000, 3995.897217, 500.000000, 8148.000000, 8355.000000, 0.000000, 0.000000, 0.000000, 3.000000, 207.000031, 1557649024.129881, 4.000000, 4.000000, 4.000000, 4.000000, 4.000000
8.000000, 0.000000, 4214.358887, 4278.461426, 3968.205078, 4097.436035, 4004.615234, 500.000000, 8151.000000, 8350.000000, 0.000000, 0.000000, 0.000000, 3.000000, 215.000031, 1557649024.137881, 4.000000, 4.000000, 4.000000, 4.000000, 4.000000
9.000000, 0.000000, 4215.897461, 4286.666504, 3964.615234, 4090.769043, 4012.820313, 16323.000000, 8148.000000, 8351.000000, 0.000000, 0.000000, 0.000000, 3.000000, 223.000031, 1557649024.145881, 4.000000, 4.000000, 4.000000, 4.000000, 4.000000
10.000000, 0.000000, 4215.384277, 4289.743652, 3981.025635, 4092.307617, 4015.384521, 500.000000, 8150.000000, 8351.000000, 0.000000, 0.000000, 0.000000, 3.000000, 230.899994, 1557649024.153781, 4.000000, 4.000000, 4.000000, 4.000000, 4.000000
11.000000, 0.000000, 4203.589844, 4274.871582, 3987.179443, 4096.410156, 4004.102539, 16189.000000, 8152.000000, 8349.000000, 0.000000, 0.000000, 0.000000, 3.000000, 238.699982, 1557649024.161581, 4.000000, 4.000000, 4.000000, 4.000000, 4.000000
12.000000, 0.000000, 4201.538574, 4276.922852, 3989.743408, 4093.333252, 4002.051270, 500.000000, 8148.000000, 8345.000000, 0.000000, 0.000000, 0.000000, 3.000000, 246.500031, 1557649024.169381, 4.000000, 4.000000, 4.000000, 4.000000, 4.000000
13.000000, 0.000000, 4217.436035, 4295.384277, 3992.820313, 4096.922852, 4016.410156, 500.000000, 8147.000000, 8351.000000, 0.000000, 0.000000, 0.000000, 3.000000, 254.300018, 1557649024.177181, 4.000000, 4.000000, 4.000000, 4.000000, 4.000000
14.000000, 0.000000, 4221.025391, 4284.102539, 3976.923096, 4098.461426, 4014.871582, 450.000000, 8142.000000, 8351.000000, 0.000000, 0.000000, 0.000000, 3.000000, 262.100006, 1557649024.184981, 4.000000, 4.000000, 4.000000, 4.000000, 4.000000
15.000000, 0.000000, 4212.307617, 4264.615234, 3970.769043, 4095.384521, 4013.333252, 16189.000000, 8143.000000, 8341.000000, 0.000000, 0.000000, 0.000000, 3.000000, 270.000031, 1557649024.192881, 4.000000, 4.000000, 4.000000, 4.000000, 4.000000
16.000000, 0.000000, 4222.563965, 4278.974121, 3988.717773, 4102.563965, 4025.640869, 0.000000, 8143.000000, 8345.000000, 0.000000, 0.000000, 0.000000, 3.000000, 278.000031, 1557649024.200881, 4.000000, 4.000000, 4.000000, 4.000000, 4.000000
17.000000, 0.000000, 4237.948730, 4291.281738, 3986.666504, 4104.615234, 4029.743408, 0.000000, 8143.000000, 8352.000000, 0.000000, 0.000000, 0.000000, 3.000000, 286.000031, 1557649024.208881, 4.000000, 4.000000, 4.000000, 4.000000, 4.000000
18.000000, 0.000000, 4232.820313, 4281.538574, 3971.281982, 4092.307617, 4022.563965, 0.000000, 8141.000000, 8356.000000, 0.000000, 0.000000, 0.000000, 3.000000, 294.000031, 1557649024.216881, 4.000000, 4.000000, 4.000000, 4.000000, 4.000000
19.000000, 0.000000, 4216.410156, 4277.436035, 3974.358887, 4083.589600, 4010.769043, 0.000000, 8143.000000, 8343.000000, 0.000000, 0.000000, 0.000000, 3.000000, 301.800018, 1557649024.224681, 4.000000, 4.000000, 4.000000, 4.000000, 4.000000
20.000000, 0.000000, 4214.358887, 4280.512695, 3964.615234, 4085.640869, 4003.076904, 0.000000, 8143.000000, 8355.000000, 0.000000, 0.000000, 0.000000, 3.000000, 309.500031, 1557649024.232381, 4.000000, 4.000000, 4.000000, 4.000000, 4.000000
21.000000, 0.000000, 4226.153809, 4281.538574, 3937.948730, 4088.205078, 4008.717773, 0.000000, 8139.000000, 8354.000000, 0.000000, 0.000000, 0.000000, 3.000000, 317.300018, 1557649024.240181, 4.000000, 4.000000, 4.000000, 4.000000, 4.000000
22.000000, 0.000000, 4224.615234, 4293.846191, 3936.410156, 4088.717773, 4021.025635, 0.000000, 8138.000000, 8350.000000, 0.000000, 0.000000, 0.000000, 3.000000, 325.100006, 1557649024.247981, 4.000000, 4.000000, 4.000000, 4.000000, 4.000000
23.000000, 0.000000, 4218.974121, 4298.461426, 3947.692139, 4085.640869, 4022.051270, 0.000000, 8133.000000, 8356.000000, 0.000000, 0.000000, 0.000000, 3.000000, 333.100006, 1557649024.255981, 4.000000, 4.000000, 4.000000, 4.000000, 4.000000
24.000000, 0.000000, 4226.153809, 4282.563965, 3941.025635, 4086.153809, 4014.871582, 0.000000, 8135.000000, 8348.000000, 0.000000, 0.000000, 0.000000, 3.000000, 341.000031, 1557649024.263881, 4.000000, 4.000000, 4.000000, 4.000000, 4.000000
25.000000, 0.000000, 4224.615234, 4271.281738, 3935.384521, 4094.358887, 4006.666504, 0.000000, 8138.000000, 8356.000000, 0.000000, 0.000000, 0.000000, 3.000000, 349.000031, 1557649024.271881, 4.000000, 4.000000, 4.000000, 4.000000, 4.000000
26.000000, 0.000000, 4211.281738, 4273.333008, 3943.076904, 4087.692139, 4002.051270, 0.000000, 8135.000000, 8361.000000, 0.000000, 0.000000, 0.000000, 3.000000, 356.899994, 1557649024.279781, 4.000000, 4.000000, 4.000000, 4.000000, 4.000000
27.000000, 0.000000, 4216.922852, 4280.000000, 3943.076904, 4082.051270, 4005.640869, 0.000000, 8131.000000, 8367.000000, 0.000000, 0.000000, 0.000000, 3.000000, 364.899994, 1557649024.287781, 4.000000, 4.000000, 4.000000, 4.000000, 4.000000
28.000000, 0.000000, 4236.922852, 4290.769043, 3927.179443, 4097.436035, 4010.256348, 0.000000, 8138.000000, 8350.000000, 0.000000, 0.000000, 0.000000, 3.000000, 372.699982, 1557649024.295581, 4.000000, 4.000000, 4.000000, 4.000000, 4.000000
29.000000, 0.000000, 4238.974121, 4296.410156, 3915.384521, 4100.000000, 4010.256348, 0.000000, 8138.000000, 8356.000000, 0.000000, 0.000000, 0.000000, 3.000000, 380.399994, 1557649024.303281, 4.000000, 4.000000, 4.000000, 4.000000, 4.000000
30.000000, 0.000000, 4231.794922, 4292.820313, 3928.717773, 4084.615234, 4013.333252, 0.000000, 8137.000000, 8371.000000, 0.000000, 0.000000, 0.000000, 3.000000, 388.199982, 1557649024.311081, 4.000000, 4.000000, 4.000000, 4.000000, 4.000000
31.000000, 0.000000, 4233.333008, 4296.922852, 3950.256348, 4088.717773, 4027.692139, 0.000000, 8135.000000, 8365.000000, 0.000000, 0.000000, 0.000000, 3.000000, 396.000031, 1557649024.318881, 4.000000, 4.000000, 4.000000, 4.000000, 4.000000
32.000000, 0.000000, 4235.897461, 4300.512695, 3951.281982, 4102.563965, 4031.794678, 0.000000, 8139.000000, 8357.000000, 0.000000, 0.000000, 0.000000, 3.000000, 404.000031, 1557649024.326881, 4.000000, 4.000000, 4.000000, 4.000000, 4.000000
33.000000, 0.000000, 4231.281738, 4293.846191, 3937.948730, 4092.820313, 4014.358887, 0.000000, 8141.000000, 8361.000000, 0.000000, 0.000000, 0.000000, 3.000000, 411.899994, 1557649024.334781, 4.000000, 4.000000, 4.000000, 4.000000, 4.000000
34.000000, 0.000000, 4231.794922, 4298.974121, 3933.333252, 4086.666504, 4004.615234, 0.000000, 8144.000000, 8365.000000, 0.000000, 0.000000, 0.000000, 3.000000, 419.899994, 1557649024.342781, 4.000000, 4.000000, 4.000000, 4.000000, 4.000000
35.000000, 0.000000, 4236.410156, 4314.871582, 3936.410156, 4094.871582, 4012.820313, 0.000000, 8146.000000, 8352.000000, 0.000000, 0.000000, 0.000000, 3.000000, 427.899994, 1557649024.350781, 4.000000, 4.000000, 4.000000, 4.000000, 4.000000
36.000000, 0.000000, 4232.307617, 4312.820313, 3934.871582, 4091.794678, 4016.410156, 0.000000, 8147.000000, 8360.000000, 0.000000, 0.000000, 0.000000, 3.000000, 435.699982, 1557649024.358581, 4.000000, 4.000000, 4.000000, 4.000000, 4.000000
37.000000, 0.000000, 4232.820313, 4299.487305, 3929.743408, 4088.205078, 4010.256348, 0.000000, 8146.000000, 8359.000000, 0.000000, 0.000000, 0.000000, 3.000000, 443.500031, 1557649024.366381, 4.000000, 4.000000, 4.000000, 4.000000, 4.000000
38.000000, 0.000000, 4244.102539, 4301.538574, 3923.076904, 4093.333252, 4004.102539, 0.000000, 8153.000000, 8359.000000, 0.000000, 0.000000, 0.000000, 3.000000, 451.199982, 1557649024.374081, 4.000000, 4.000000, 4.000000, 4.000000, 4.000000
39.000000, 0.000000, 4246.153809, 4313.846191, 3922.051270, 4092.307617, 4010.256348, 0.000000, 8143.000000, 8361.000000, 0.000000, 0.000000, 0.000000, 3.000000, 459.000031, 1557649024.381881, 4.000000, 4.000000, 4.000000, 4.000000, 4.000000
40.000000, 0.000000, 4238.974121, 4314.358887, 3934.358887, 4093.845947, 4020.512695, 0.000000, 8145.000000, 8363.000000, 0.000000, 0.000000, 0.000000, 3.000000, 467.000031, 1557649024.389881, 4.000000, 4.000000, 4.000000, 4.000000, 4.000000
41.000000, 0.000000, 4242.051270, 4308.717773, 3949.743408, 4106.153809, 4022.051270, 0.000000, 8157.000000, 8359.000000, 0.000000, 0.000000, 0.000000, 3.000000, 474.899994, 1557649024.397781, 4.000000, 4.000000, 4.000000, 4.000000, 4.000000
42.000000, 0.000000, 4252.307617, 4316.922852, 3955.384521, 4113.333008, 4023.589600, 0.000000, 8155.000000, 8356.000000, 0.000000, 0.000000, 0.000000, 3.000000, 482.899994, 1557649024.405781, 4.000000, 4.000000, 4.000000, 4.000000, 4.000000
43.000000, 0.000000, 4248.205078, 4321.538574, 3962.051270, 4111.794922, 4025.640869, 0.000000, 8150.000000, 8366.000000, 0.000000, 0.000000, 0.000000, 3.000000, 490.800018, 1557649024.413681, 4.000000, 4.000000, 4.000000, 4.000000, 4.000000
44.000000, 0.000000, 4247.179199, 4311.281738, 3979.487061, 4111.281738, 4026.153809, 0.000000, 8147.000000, 8362.000000, 0.000000, 0.000000, 0.000000, 3.000000, 498.800018, 1557649024.421681, 4.000000, 4.000000, 4.000000, 4.000000, 4.000000
45.000000, 0.000000, 4256.922852, 4311.281738, 3983.076904, 4111.281738, 4030.256348, 0.000000, 8146.000000, 8355.000000, 0.000000, 0.000000, 0.000000, 3.000000, 506.600006, 1557649024.429481, 4.000000, 4.000000, 4.000000, 4.000000, 4.000000
46.000000, 0.000000, 4257.436035, 4325.127930, 3961.538330, 4107.179199, 4027.179443, 0.000000, 8147.000000, 8360.000000, 0.000000, 0.000000, 0.000000, 3.000000, 514.399994, 1557649024.437281, 4.000000, 4.000000, 4.000000, 4.000000, 4.000000
47.000000, 0.000000, 4248.717773, 4326.153809, 3950.769043, 4102.563965, 4018.974365, 0.000000, 8144.000000, 8367.000000, 0.000000, 0.000000, 0.000000, 3.000000, 522.100006, 1557649024.444981, 4.000000, 4.000000, 4.000000, 4.000000, 4.000000
48.000000, 0.000000, 4250.256348, 4320.000000, 3968.717773, 4104.615234, 4026.666504, 0.000000, 8144.000000, 8364.000000, 0.000000, 0.000000, 0.000000, 3.000000, 530.000031, 1557649024.452881, 4.000000, 4.000000, 4.000000, 4.000000, 4.000000
49.000000, 0.000000, 4250.769043, 4322.051270, 3978.461426, 4103.589844, 4025.128174, 0.000000, 8143.000000, 8359.000000, 0.000000, 0.000000, 0.000000, 3.000000, 538.000031, 1557649024.460881, 4.000000, 4.000000, 4.000000, 4.000000, 4.000000
50.000000, 0.000000, 4239.487305, 4315.897461, 3954.358887, 4094.358887, 4000.512695, 0.000000, 8146.000000, 8364.000000, 0.000000, 0.000000, 0.000000, 3.000000, 546.000031, 1557649024.468881, 4.000000, 4.000000, 4.000000, 4.000000, 4.000000
51.000000, 0.000000, 4234.871582, 4307.692383, 3934.358887, 4086.666504, 3993.845947, 0.000000, 8144.000000, 8365.000000, 0.000000, 0.000000, 0.000000, 3.000000, 554.000006, 1557649024.476881, 4.000000, 4.000000, 4.000000, 4.000000, 4.000000
52.000000, 0.000000, 4222.563965, 4305.641113, 3944.102539, 4087.692139, 3995.897217, 0.000000, 8137.000000, 8363.000000, 0.000000, 0.000000, 0.000000, 3.000000, 561.700006, 1557649024.484581, 4.000000, 4.000000, 4.000000, 4.000000, 4.000000
53.000000, 0.000000, 4206.666504, 4302.563965, 3956.923096, 4092.307617, 3987.692139, 0.000000, 8143.000000, 8375.000000, 0.000000, 0.000000, 0.000000, 3.000000, 569.500006, 1557649024.492381, 4.000000, 4.000000, 4.000000, 4.000000, 4.000000
54.000000, 0.000000, 4226.153809, 4307.179199, 3961.538330, 4090.769043, 3998.461426, 0.000000, 8132.000000, 8375.000000, 0.000000, 0.000000, 0.000000, 3.000000, 577.300007, 1557649024.500181, 4.000000, 4.000000, 4.000000, 4.000000, 4.000000
55.000000, 0.000000, 4257.436035, 4319.487305, 3978.974365, 4094.358887, 4026.153809, 0.000000, 8131.000000, 8365.000000, 0.000000, 0.000000, 0.000000, 3.000000, 585.100006, 1557649024.507981, 4.000000, 4.000000, 4.000000, 4.000000, 4.000000
56.000000, 0.000000, 4255.897461, 4322.051270, 3998.461426, 4102.051270, 4044.102539, 0.000000, 8130.000000, 8373.000000, 0.000000, 0.000000, 0.000000, 3.000000, 593.000008, 1557649024.515881, 4.000000, 4.000000, 4.000000, 4.000000, 4.000000
57.000000, 0.000000, 4246.153809, 4318.461426, 4000.000000, 4092.820313, 4044.615234, 0.000000, 8131.000000, 8374.000000, 0.000000, 0.000000, 0.000000, 3.000000, 601.000008, 1557649024.523881, 4.000000, 4.000000, 4.000000, 4.000000, 4.000000
58.000000, 0.000000, 4260.000000, 4322.051270, 3999.487061, 4084.102539, 4038.974365, 0.000000, 8137.000000, 8357.000000, 0.000000, 0.000000, 0.000000, 3.000000, 608.900005, 1557649024.531781, 4.000000, 4.000000, 4.000000, 4.000000, 4.000000
59.000000, 0.000000, 4271.281738, 4326.666504, 4000.000000, 4088.205078, 4040.000000, 0.000000, 8142.000000, 8358.000000, 0.000000, 0.000000, 0.000000, 3.000000, 616.900009, 1557649024.539781, 4.000000, 4.000000, 4.000000, 4.000000, 4.000000
60.000000, 0.000000, 4262.563965, 4323.589844, 4001.025635, 4089.230713, 4048.205078, 0.000000, 8130.000000, 8361.000000, 0.000000, 0.000000, 0.000000, 3.000000, 624.900009, 1557649024.547781, 4.000000, 4.000000, 4.000000, 4.000000, 4.000000
61.000000, 0.000000, 4253.333008, 4324.615234, 4007.692139, 4082.563965, 4049.230713, 0.000000, 8140.000000, 8363.000000, 0.000000, 0.000000, 0.000000, 3.000000, 632.800003, 1557649024.555681, 4.000000, 4.000000, 4.000000, 4.000000, 4.000000
62.000000, 0.000000, 4245.127930, 4325.641113, 3996.923096, 4077.435791, 4039.487061, 0.000000, 8134.000000, 8356.000000, 0.000000, 0.000000, 0.000000, 3.000000, 640.600006, 1557649024.563481, 4.000000, 4.000000, 4.000000, 4.000000, 4.000000
63.000000, 0.000000, 4229.230469, 4309.230469, 3970.769043, 4072.820313, 4026.666504, 0.000000, 8139.000000, 8356.000000, 0.000000, 0.000000, 0.000000, 3.000000, 648.400009, 1557649024.571281, 4.000000, 4.000000, 4.000000, 4.000000, 4.000000
64.000000, 0.000000, 4218.974121, 4292.307617, 3969.230713, 4071.281982, 4013.333252, 500.000000, 8141.000000, 8358.000000, 0.000000, 0.000000, 0.000000, 3.000000, 656.200005, 1557649024.579081, 4.000000, 4.000000, 4.000000, 4.000000, 4.000000
65.000000, 0.000000, 4228.205078, 4305.127930, 3984.615234, 4074.358887, 4012.820313, 500.000000, 8139.000000, 8352.000000, 0.000000, 0.000000, 0.000000, 3.000000, 664.100006, 1557649024.586981, 4.000000, 4.000000, 4.000000, 4.000000, 4.000000
66.000000, 0.000000, 4236.410156, 4316.922852, 3977.948730, 4075.897217, 4021.025635, 16197.000000, 8143.000000, 8360.000000, 0.000000, 0.000000, 0.000000, 3.000000, 672.000008, 1557649024.594881, 4.000000, 4.000000, 4.000000, 4.000000, 4.000000
67.000000, 0.000000, 4227.692383, 4308.717773, 3968.717773, 4077.435791, 4021.538330, 500.000000, 8141.000000, 8358.000000, 0.000000, 0.000000, 0.000000, 3.000000, 680.000000, 1557649024.602881, 4.000000, 4.000000, 4.000000, 4.000000, 4.000000
68.000000, 0.000000, 4224.102539, 4320.512695, 3987.179443, 4078.461426, 4019.487061, 16146.000000, 8141.000000, 8351.000000, 0.000000, 0.000000, 0.000000, 3.000000, 688.000000, 1557649024.610881, 4.000000, 4.000000, 4.000000, 4.000000, 4.000000
69.000000, 0.000000, 4224.102539, 4333.333008, 4000.000000, 4077.435791, 4018.461426, 500.000000, 8142.000000, 8359.000000, 0.000000, 0.000000, 0.000000, 3.000000, 696.000000, 1557649024.618881, 4.000000, 4.000000, 4.000000, 4.000000, 4.000000
70.000000, 0.000000, 4207.179199, 4314.871582, 3979.487061, 4069.230713, 4008.205078, 16143.000000, 8148.000000, 8357.000000, 0.000000, 0.000000, 0.000000, 3.000000, 703.700012, 1557649024.626581, 4.000000, 4.000000, 4.000000, 4.000000, 4.000000
71.000000, 0.000000, 4192.820313, 4303.589844, 3964.102539, 4057.948730, 3995.384521, 500.000000, 8143.000000, 8348.000000, 0.000000, 0.000000, 0.000000, 3.000000, 711.500000, 1557649024.634381, 4.000000, 4.000000, 4.000000, 4.000000, 4.000000
72.000000, 0.000000, 4196.410156, 4306.153809, 3974.358887, 4064.102539, 3993.333252, 500.000000, 8143.000000, 8347.000000, 0.000000, 0.000000, 0.000000, 3.000000, 719.300003, 1557649024.642181, 4.000000, 4.000000, 4.000000, 4.000000, 4.000000
73.000000, 0.000000, 4200.000000, 4295.384277, 3977.435791, 4073.845947, 3990.769043, 16323.000000, 8142.000000, 8358.000000, 0.000000, 0.000000, 0.000000, 3.000000, 727.100006, 1557649024.649981, 4.000000, 4.000000, 4.000000, 4.000000, 4.000000
74.000000, 0.000000, 4190.769043, 4291.794922, 3972.307617, 4062.563965, 3981.025635, 500.000000, 8141.000000, 8362.000000, 0.000000, 0.000000, 0.000000, 3.000000, 735.000000, 1557649024.657881, 4.000000, 4.000000, 4.000000, 4.000000, 4.000000
75.000000, 0.000000, 4185.641113, 4306.153809, 3984.615234, 4054.871582, 3981.538330, 16196.000000, 8146.000000, 8350.000000, 0.000000, 0.000000, 0.000000, 3.000000, 742.900009, 1557649024.665781, 4.000000, 4.000000, 4.000000, 4.000000, 4.000000
76.000000, 0.000000, 4195.384277, 4314.358887, 3996.923096, 4073.333252, 3989.743408, 500.000000, 8137.000000, 8351.000000, 0.000000, 0.000000, 0.000000, 3.000000, 750.900009, 1557649024.673781, 4.000000, 4.000000, 4.000000, 4.000000, 4.000000
77.000000, 0.000000, 4200.000000, 4310.256348, 3990.769043, 4079.487061, 3987.179443, 500.000000, 8135.000000, 8356.000000, 0.000000, 0.000000, 0.000000, 3.000000, 758.900009, 1557649024.681781, 4.000000, 4.000000, 4.000000, 4.000000, 4.000000
78.000000, 0.000000, 4191.281738, 4303.589844, 3986.153809, 4057.948730, 3981.538330, 450.000000, 8141.000000, 8353.000000, 0.000000, 0.000000, 0.000000, 3.000000, 766.700012, 1557649024.689581, 4.000000, 4.000000, 4.000000, 4.000000, 4.000000
79.000000, 0.000000, 4190.769043, 4301.538574, 3985.128174, 4055.897217, 3987.179443, 16196.000000, 8138.000000, 8352.000000, 0.000000, 0.000000, 0.000000, 3.000000, 774.400009, 1557649024.697281, 4.000000, 4.000000, 4.000000, 4.000000, 4.000000
80.000000, 0.000000, 4203.589844, 4304.615234, 3975.384521, 4071.794678, 3982.051270, 450.000000, 8146.000000, 8354.000000, 0.000000, 0.000000, 0.000000, 3.000000, 782.200012, 1557649024.705081, 4.000000, 4.000000, 4.000000, 4.000000, 4.000000
81.000000, 0.000000, 4205.641113, 4310.256348, 3978.461426, 4070.769043, 3971.281982, 450.000000, 8145.000000, 8351.000000, 0.000000, 0.000000, 0.000000, 3.000000, 790.000000, 1557649024.712881, 4.000000, 4.000000, 4.000000, 4.000000, 4.000000
82.000000, 0.000000, 4198.461426, 4316.922852, 3999.487061, 4065.640869, 3983.589600, 450.000000, 8144.000000, 8352.000000, 0.000000, 0.000000, 0.000000, 3.000000, 798.000000, 1557649024.720881, 4.000000, 4.000000, 4.000000, 4.000000, 4.000000
83.000000, 0.000000, 4197.436035, 4315.897461, 4003.589600, 4070.769043, 3993.845947, 16196.000000, 8147.000000, 8349.000000, 0.000000, 0.000000, 0.000000, 3.000000, 806.000000, 1557649024.728881, 4.000000, 4.000000, 4.000000, 4.000000, 4.000000
84.000000, 0.000000, 4203.076660, 4310.769043, 4000.000000, 4074.358887, 3982.563965, 450.000000, 8146.000000, 8341.000000, 0.000000, 0.000000, 0.000000, 3.000000, 813.899994, 1557649024.736781, 4.000000, 4.000000, 4.000000, 4.000000, 4.000000
85.000000, 0.000000, 4204.615234, 4308.205078, 4005.640869, 4077.435791, 3983.589600, 450.000000, 8150.000000, 8344.000000, 0.000000, 0.000000, 0.000000, 3.000000, 821.899994, 1557649024.744781, 4.000000, 4.000000, 4.000000, 4.000000, 4.000000
86.000000, 0.000000, 4203.589844, 4309.230469, 3998.974365, 4084.102539, 3990.256348, 450.000000, 8144.000000, 8349.000000, 0.000000, 0.000000, 0.000000, 3.000000, 829.700012, 1557649024.752581, 4.000000, 4.000000, 4.000000, 4.000000, 4.000000
87.000000, 0.000000, 4208.717773, 4315.897461, 3997.435791, 4084.615234, 3983.589600, 16196.000000, 8151.000000, 8357.000000, 0.000000, 0.000000, 0.000000, 3.000000, 837.500000, 1557649024.760381, 4.000000, 4.000000, 4.000000, 4.000000, 4.000000
88.000000, 0.000000, 4216.922852, 4328.717773, 4014.871582, 4081.538330, 3988.205078, 450.000000, 8153.000000, 8343.000000, 0.000000, 0.000000, 0.000000, 3.000000, 845.300018, 1557649024.768181, 4.000000, 4.000000, 4.000000, 4.000000, 4.000000
89.000000, 0.000000, 4221.538574, 4330.256348, 4018.461426, 4078.974365, 3992.820313, 450.000000, 8144.000000, 8342.000000, 0.000000, 0.000000, 0.000000, 3.000000, 853.000000, 1557649024.775881, 4.000000, 4.000000, 4.000000, 4.000000, 4.000000
90.000000, 0.000000, 4216.410156, 4321.538574, 4008.205078, 4073.845947, 3978.461426, 450.000000, 8152.000000, 8345.000000, 0.000000, 0.000000, 0.000000, 3.000000, 860.899994, 1557649024.783781, 4.000000, 4.000000, 4.000000, 4.000000, 4.000000
